# Keck LRIS spectra of late-M, L and T dwarfs
# spty = M4.5  (Spectral type)
#
#    WAVELENGTH	#           FLUX	
#    (ANGSTROM)	#  (ERG/CM2/S/A)	
###############	################	
     6160.00000	     4.06833e-17	
     6161.90000	     3.90778e-17	
     6163.80000	     3.53561e-17	
     6165.70000	     3.58855e-17	
     6167.60000	     3.70287e-17	
     6169.50000	     3.58158e-17	
     6171.40000	     3.54869e-17	
     6173.30000	     3.43446e-17	
     6175.20000	     3.22086e-17	
     6177.10000	     3.62120e-17	
     6179.00000	     3.88518e-17	
     6180.90000	     3.72069e-17	
     6182.80000	     3.84831e-17	
     6184.70000	     3.91723e-17	
     6186.60000	     3.38195e-17	
     6188.50000	     3.56373e-17	
     6190.40000	     3.44394e-17	
     6192.30000	     3.44140e-17	
     6194.20000	     3.45139e-17	
     6196.10000	     3.40861e-17	
     6198.00000	     3.66901e-17	
     6199.90000	     3.45152e-17	
     6201.80000	     3.22727e-17	
     6203.70000	     3.27622e-17	
     6205.60000	     3.65765e-17	
     6207.50000	     3.89209e-17	
     6209.40000	     3.52652e-17	
     6211.30000	     3.32804e-17	
     6213.20000	     3.41632e-17	
     6215.10000	     3.54682e-17	
     6217.00000	     3.07555e-17	
     6218.90000	     3.07750e-17	
     6220.80000	     3.08557e-17	
     6222.70000	     2.82459e-17	
     6224.60000	     2.93428e-17	
     6226.50000	     2.79619e-17	
     6228.40000	     2.73859e-17	
     6230.30000	     2.93278e-17	
     6232.20000	     2.88915e-17	
     6234.10000	     3.04556e-17	
     6236.00000	     2.96308e-17	
     6237.90000	     2.87148e-17	
     6239.80000	     3.31985e-17	
     6241.70000	     3.19866e-17	
     6243.60000	     3.13050e-17	
     6245.50000	     3.07438e-17	
     6247.40000	     3.54880e-17	
     6249.30000	     3.33868e-17	
     6251.20000	     3.22510e-17	
     6253.10000	     3.67002e-17	
     6255.00000	     3.69880e-17	
     6256.90000	     3.97367e-17	
     6258.80000	     3.48934e-17	
     6260.70000	     3.87562e-17	
     6262.60000	     3.96561e-17	
     6264.50000	     3.82749e-17	
     6266.40000	     3.98775e-17	
     6268.30000	     3.84089e-17	
     6270.20000	     3.93986e-17	
     6272.10000	     4.05148e-17	
     6274.00000	     3.80742e-17	
     6275.90000	     4.02765e-17	
     6277.80000	     3.87461e-17	
     6279.70000	     3.78982e-17	
     6281.60000	     4.24443e-17	
     6283.50000	     4.29952e-17	
     6285.40000	     4.63718e-17	
     6287.30000	     4.56135e-17	
     6289.20000	     4.74897e-17	
     6291.10000	     4.65241e-17	
     6293.00000	     4.76204e-17	
     6294.90000	     4.66904e-17	
     6296.80000	     4.77563e-17	
     6298.70000	     4.80789e-17	
     6300.60000	     4.56911e-17	
     6302.50000	     5.01892e-17	
     6304.40000	     4.74207e-17	
     6306.30000	     5.06551e-17	
     6308.20000	     5.46131e-17	
     6310.10000	     5.52063e-17	
     6312.00000	     5.81209e-17	
     6313.90000	     5.81037e-17	
     6315.80000	     5.20384e-17	
     6317.70000	     5.63304e-17	
     6319.60000	     5.85666e-17	
     6321.50000	     5.98809e-17	
     6323.40000	     5.65400e-17	
     6325.30000	     6.12009e-17	
     6327.20000	     6.27173e-17	
     6329.10000	     6.10180e-17	
     6331.00000	     6.13509e-17	
     6332.90000	     6.60041e-17	
     6334.80000	     6.48084e-17	
     6336.70000	     6.36684e-17	
     6338.60000	     6.58717e-17	
     6340.50000	     6.95566e-17	
     6342.40000	     7.01361e-17	
     6344.30000	     7.02455e-17	
     6346.20000	     7.05775e-17	
     6348.10000	     7.30756e-17	
     6350.00000	     7.12142e-17	
     6351.90000	     6.64918e-17	
     6353.80000	     6.38106e-17	
     6355.70000	     6.55623e-17	
     6357.60000	     6.41933e-17	
     6359.50000	     6.27618e-17	
     6361.40000	     6.42472e-17	
     6363.30000	     6.32329e-17	
     6365.20000	     6.14711e-17	
     6367.10000	     6.49258e-17	
     6369.00000	     6.86198e-17	
     6370.90000	     6.50506e-17	
     6372.80000	     6.25924e-17	
     6374.70000	     6.45226e-17	
     6376.60000	     6.56599e-17	
     6378.50000	     6.19924e-17	
     6380.40000	     5.94601e-17	
     6382.30000	     6.00674e-17	
     6384.20000	     6.04131e-17	
     6386.10000	     6.15313e-17	
     6388.00000	     6.00820e-17	
     6389.90000	     5.97516e-17	
     6391.80000	     6.09941e-17	
     6393.70000	     6.71468e-17	
     6395.60000	     7.34616e-17	
     6397.50000	     7.10600e-17	
     6399.40000	     6.94423e-17	
     6401.30000	     7.10400e-17	
     6403.20000	     7.26756e-17	
     6405.10000	     7.72778e-17	
     6407.00000	     8.11115e-17	
     6408.90000	     7.76877e-17	
     6410.80000	     7.87601e-17	
     6412.70000	     7.81593e-17	
     6414.60000	     7.29006e-17	
     6416.50000	     7.55500e-17	
     6418.40000	     7.63443e-17	
     6420.30000	     7.54936e-17	
     6422.20000	     7.29250e-17	
     6424.10000	     7.85043e-17	
     6426.00000	     8.09005e-17	
     6427.90000	     8.01734e-17	
     6429.80000	     7.83437e-17	
     6431.70000	     8.13828e-17	
     6433.60000	     8.05355e-17	
     6435.50000	     7.83250e-17	
     6437.40000	     7.85593e-17	
     6439.30000	     8.14458e-17	
     6441.20000	     8.19567e-17	
     6443.10000	     8.40080e-17	
     6445.00000	     8.87773e-17	
     6446.90000	     8.72794e-17	
     6448.80000	     8.16579e-17	
     6450.70000	     8.01586e-17	
     6452.60000	     7.99131e-17	
     6454.50000	     8.18563e-17	
     6456.40000	     8.37448e-17	
     6458.30000	     8.83940e-17	
     6460.20000	     8.72946e-17	
     6462.10000	     8.56510e-17	
     6464.00000	     8.20193e-17	
     6465.90000	     9.18720e-17	
     6467.80000	     9.02517e-17	
     6469.70000	     9.16541e-17	
     6471.60000	     9.38452e-17	
     6473.50000	     9.13261e-17	
     6475.40000	     8.98203e-17	
     6477.30000	     9.32579e-17	
     6479.20000	     9.16192e-17	
     6481.10000	     8.95253e-17	
     6483.00000	     8.63719e-17	
     6484.90000	     8.57108e-17	
     6486.80000	     8.86508e-17	
     6488.70000	     8.79723e-17	
     6490.60000	     8.69079e-17	
     6492.50000	     8.81277e-17	
     6494.40000	     8.58591e-17	
     6496.30000	     8.42815e-17	
     6498.20000	     8.64689e-17	
     6500.10000	     9.25275e-17	
     6502.00000	     9.41054e-17	
     6503.90000	     9.81412e-17	
     6505.80000	     9.69850e-17	
     6507.70000	     1.00024e-16	
     6509.60000	     1.00817e-16	
     6511.50000	     9.98403e-17	
     6513.40000	     1.01073e-16	
     6515.30000	     9.89093e-17	
     6517.20000	     9.82085e-17	
     6519.10000	     9.99684e-17	
     6521.00000	     1.03728e-16	
     6522.90000	     1.03124e-16	
     6524.80000	     1.03645e-16	
     6526.70000	     1.10739e-16	
     6528.60000	     1.08648e-16	
     6530.50000	     1.06759e-16	
     6532.40000	     1.10890e-16	
     6534.30000	     1.11370e-16	
     6536.20000	     1.13939e-16	
     6538.10000	     1.12163e-16	
     6540.00000	     1.14269e-16	
     6541.90000	     1.13942e-16	
     6543.80000	     1.09234e-16	
     6545.70000	     1.03725e-16	
     6547.60000	     1.02330e-16	
     6549.50000	     1.02005e-16	
     6551.40000	     1.00790e-16	
     6553.30000	     9.87765e-17	
     6555.20000	     9.79175e-17	
     6557.10000	     9.62720e-17	
     6559.00000	     9.94156e-17	
     6560.90000	     9.93949e-17	
     6562.80000	     9.33004e-17	
     6564.70000	     9.45710e-17	
     6566.60000	     9.19077e-17	
     6568.50000	     9.22733e-17	
     6570.40000	     9.18255e-17	
     6572.30000	     9.18323e-17	
     6574.20000	     8.96063e-17	
     6576.10000	     8.96293e-17	
     6578.00000	     8.85442e-17	
     6579.90000	     9.06646e-17	
     6581.80000	     9.30140e-17	
     6583.70000	     9.48734e-17	
     6585.60000	     9.59449e-17	
     6587.50000	     1.00641e-16	
     6589.40000	     9.87341e-17	
     6591.30000	     9.37065e-17	
     6593.20000	     9.24490e-17	
     6595.10000	     8.82679e-17	
     6597.00000	     9.07234e-17	
     6598.90000	     9.19281e-17	
     6600.80000	     9.63962e-17	
     6602.70000	     9.51615e-17	
     6604.60000	     9.24357e-17	
     6606.50000	     9.23955e-17	
     6608.40000	     9.30448e-17	
     6610.30000	     9.57797e-17	
     6612.20000	     9.08063e-17	
     6614.10000	     9.39790e-17	
     6616.00000	     9.13267e-17	
     6617.90000	     8.99402e-17	
     6619.80000	     8.28125e-17	
     6621.70000	     8.02628e-17	
     6623.60000	     8.25619e-17	
     6625.50000	     8.41568e-17	
     6627.40000	     8.48000e-17	
     6629.30000	     8.22392e-17	
     6631.20000	     8.05493e-17	
     6633.10000	     8.15909e-17	
     6635.00000	     8.32369e-17	
     6636.90000	     8.16235e-17	
     6638.80000	     7.93363e-17	
     6640.70000	     8.25410e-17	
     6642.60000	     8.56412e-17	
     6644.50000	     8.45691e-17	
     6646.40000	     8.33991e-17	
     6648.30000	     8.07643e-17	
     6650.20000	     7.20928e-17	
     6652.10000	     6.96316e-17	
     6654.00000	     7.05864e-17	
     6655.90000	     6.84636e-17	
     6657.80000	     7.31404e-17	
     6659.70000	     7.21733e-17	
     6661.60000	     7.39043e-17	
     6663.50000	     7.46514e-17	
     6665.40000	     7.67988e-17	
     6667.30000	     8.03851e-17	
     6669.20000	     7.75695e-17	
     6671.10000	     7.84552e-17	
     6673.00000	     7.80022e-17	
     6674.90000	     7.69199e-17	
     6676.80000	     7.66536e-17	
     6678.70000	     7.15363e-17	
     6680.60000	     6.80958e-17	
     6682.50000	     6.44861e-17	
     6684.40000	     6.23717e-17	
     6686.30000	     6.90323e-17	
     6688.20000	     6.79545e-17	
     6690.10000	     6.33003e-17	
     6692.00000	     6.81644e-17	
     6693.90000	     6.94015e-17	
     6695.80000	     6.95577e-17	
     6697.70000	     6.88521e-17	
     6699.60000	     6.93582e-17	
     6701.50000	     7.31748e-17	
     6703.40000	     7.39183e-17	
     6705.30000	     7.44951e-17	
     6707.20000	     7.42914e-17	
     6709.10000	     7.31537e-17	
     6711.00000	     7.03409e-17	
     6712.90000	     6.71842e-17	
     6714.80000	     6.52994e-17	
     6716.70000	     5.96158e-17	
     6718.60000	     5.59930e-17	
     6720.50000	     5.89645e-17	
     6722.40000	     6.29324e-17	
     6724.30000	     6.24541e-17	
     6726.20000	     5.78342e-17	
     6728.10000	     6.34342e-17	
     6730.00000	     6.59208e-17	
     6731.90000	     6.40584e-17	
     6733.80000	     6.45798e-17	
     6735.70000	     6.42731e-17	
     6737.60000	     6.55084e-17	
     6739.50000	     6.55797e-17	
     6741.40000	     6.57889e-17	
     6743.30000	     6.73804e-17	
     6745.20000	     6.42668e-17	
     6747.10000	     6.13073e-17	
     6749.00000	     6.33892e-17	
     6750.90000	     6.10196e-17	
     6752.80000	     6.12451e-17	
     6754.70000	     6.29182e-17	
     6756.60000	     6.52112e-17	
     6758.50000	     6.50923e-17	
     6760.40000	     6.66184e-17	
     6762.30000	     6.97084e-17	
     6764.20000	     6.82921e-17	
     6766.10000	     6.92002e-17	
     6768.00000	     6.92077e-17	
     6769.90000	     6.99000e-17	
     6771.80000	     6.96766e-17	
     6773.70000	     7.23348e-17	
     6775.60000	     8.05678e-17	
     6777.50000	     8.22530e-17	
     6779.40000	     6.76333e-17	
     6781.30000	     6.66679e-17	
     6783.20000	     6.30313e-17	
     6785.10000	     6.09711e-17	
     6787.00000	     5.88421e-17	
     6788.90000	     6.27809e-17	
     6790.80000	     6.30166e-17	
     6792.70000	     6.35768e-17	
     6794.60000	     6.56613e-17	
     6796.50000	     6.38883e-17	
     6798.40000	     6.44369e-17	
     6800.30000	     6.99326e-17	
     6802.20000	     6.92349e-17	
     6804.10000	     6.73104e-17	
     6806.00000	     6.86049e-17	
     6807.90000	     6.61456e-17	
     6809.80000	     6.78778e-17	
     6811.70000	     6.72984e-17	
     6813.60000	     7.14841e-17	
     6815.50000	     6.91962e-17	
     6817.40000	     6.75288e-17	
     6819.30000	     7.16351e-17	
     6821.20000	     6.62251e-17	
     6823.10000	     6.70547e-17	
     6825.00000	     7.31567e-17	
     6826.90000	     8.01817e-17	
     6828.80000	     7.58686e-17	
     6830.70000	     7.15336e-17	
     6832.60000	     7.11121e-17	
     6834.50000	     7.50253e-17	
     6836.40000	     7.30447e-17	
     6838.30000	     7.03357e-17	
     6840.20000	     7.38207e-17	
     6842.10000	     7.65296e-17	
     6844.00000	     7.48181e-17	
     6845.90000	     7.40926e-17	
     6847.80000	     7.21340e-17	
     6849.70000	     6.97986e-17	
     6851.60000	     6.78884e-17	
     6853.50000	     6.42859e-17	
     6855.40000	     6.58054e-17	
     6857.30000	     6.63078e-17	
     6859.20000	     6.69604e-17	
     6861.10000	     7.06319e-17	
     6863.00000	     7.03458e-17	
     6864.90000	     6.85084e-17	
     6866.80000	     6.10978e-17	
     6868.70000	     5.48257e-17	
     6870.60000	     5.45446e-17	
     6872.50000	     5.52662e-17	
     6874.40000	     6.05001e-17	
     6876.30000	     6.69907e-17	
     6878.20000	     7.15640e-17	
     6880.10000	     6.79954e-17	
     6882.00000	     7.17895e-17	
     6883.90000	     7.41292e-17	
     6885.80000	     7.14193e-17	
     6887.70000	     6.92343e-17	
     6889.60000	     7.03870e-17	
     6891.50000	     7.04502e-17	
     6893.40000	     7.32293e-17	
     6895.30000	     7.49289e-17	
     6897.20000	     7.23171e-17	
     6899.10000	     7.25969e-17	
     6901.00000	     6.77737e-17	
     6902.90000	     7.27615e-17	
     6904.80000	     7.98835e-17	
     6906.70000	     8.12002e-17	
     6908.60000	     8.16064e-17	
     6910.50000	     8.36660e-17	
     6912.40000	     8.49873e-17	
     6914.30000	     8.27557e-17	
     6916.20000	     8.00862e-17	
     6918.10000	     7.77889e-17	
     6920.00000	     8.00755e-17	
     6921.90000	     8.39933e-17	
     6923.80000	     8.91793e-17	
     6925.70000	     9.03930e-17	
     6927.60000	     9.23036e-17	
     6929.50000	     9.43262e-17	
     6931.40000	     9.71996e-17	
     6933.30000	     9.68586e-17	
     6935.20000	     1.01249e-16	
     6937.10000	     9.91964e-17	
     6939.00000	     9.95597e-17	
     6940.90000	     1.00250e-16	
     6942.80000	     1.04921e-16	
     6944.70000	     1.10065e-16	
     6946.60000	     1.09220e-16	
     6948.50000	     1.07441e-16	
     6950.40000	     1.08624e-16	
     6952.30000	     1.06227e-16	
     6954.20000	     1.06402e-16	
     6956.10000	     1.08347e-16	
     6958.00000	     1.06287e-16	
     6959.90000	     1.08248e-16	
     6961.80000	     1.13054e-16	
     6963.70000	     1.13024e-16	
     6965.60000	     1.12029e-16	
     6967.50000	     1.17401e-16	
     6969.40000	     1.16838e-16	
     6971.30000	     1.10901e-16	
     6973.20000	     1.10139e-16	
     6975.10000	     1.13524e-16	
     6977.00000	     1.15748e-16	
     6978.90000	     1.18615e-16	
     6980.80000	     1.19450e-16	
     6982.70000	     1.20013e-16	
     6984.60000	     1.24830e-16	
     6986.50000	     1.21956e-16	
     6988.40000	     1.18383e-16	
     6990.30000	     1.17233e-16	
     6992.20000	     1.18250e-16	
     6994.10000	     1.18714e-16	
     6996.00000	     1.21493e-16	
     6997.90000	     1.22320e-16	
     6999.80000	     1.22794e-16	
     7001.70000	     1.24326e-16	
     7003.60000	     1.24582e-16	
     7005.50000	     1.24430e-16	
     7007.40000	     1.23370e-16	
     7009.30000	     1.27932e-16	
     7011.20000	     1.28466e-16	
     7013.10000	     1.26362e-16	
     7015.00000	     1.29279e-16	
     7016.90000	     1.33305e-16	
     7018.80000	     1.31626e-16	
     7020.70000	     1.32489e-16	
     7022.60000	     1.29863e-16	
     7024.50000	     1.31452e-16	
     7026.40000	     1.36092e-16	
     7028.30000	     1.37530e-16	
     7030.20000	     1.40978e-16	
     7032.10000	     1.44648e-16	
     7034.00000	     1.48735e-16	
     7035.90000	     1.51269e-16	
     7037.80000	     1.51937e-16	
     7039.70000	     1.56641e-16	
     7041.60000	     1.58651e-16	
     7043.50000	     1.60071e-16	
     7045.40000	     1.63175e-16	
     7047.30000	     1.64727e-16	
     7049.20000	     1.69360e-16	
     7051.10000	     1.61856e-16	
     7053.00000	     1.37311e-16	
     7054.90000	     1.19987e-16	
     7056.80000	     1.11975e-16	
     7058.70000	     1.08907e-16	
     7060.60000	     1.07345e-16	
     7062.50000	     1.04549e-16	
     7064.40000	     1.06369e-16	
     7066.30000	     1.12016e-16	
     7068.20000	     1.14480e-16	
     7070.10000	     1.16617e-16	
     7072.00000	     1.16568e-16	
     7073.90000	     1.17716e-16	
     7075.80000	     1.20908e-16	
     7077.70000	     1.21548e-16	
     7079.60000	     1.23442e-16	
     7081.50000	     1.20838e-16	
     7083.40000	     1.22651e-16	
     7085.30000	     1.14841e-16	
     7087.20000	     1.02305e-16	
     7089.10000	     9.15018e-17	
     7091.00000	     8.84524e-17	
     7092.90000	     8.74150e-17	
     7094.80000	     8.74812e-17	
     7096.70000	     8.84696e-17	
     7098.60000	     8.85992e-17	
     7100.50000	     8.91294e-17	
     7102.40000	     8.99888e-17	
     7104.30000	     9.41284e-17	
     7106.20000	     9.80285e-17	
     7108.10000	     1.01279e-16	
     7110.00000	     1.04908e-16	
     7111.90000	     1.05196e-16	
     7113.80000	     1.05968e-16	
     7115.70000	     1.07223e-16	
     7117.60000	     1.08236e-16	
     7119.50000	     1.10719e-16	
     7121.40000	     1.11705e-16	
     7123.30000	     1.01667e-16	
     7125.20000	     8.27781e-17	
     7127.10000	     7.06599e-17	
     7129.00000	     7.04949e-17	
     7130.90000	     7.01936e-17	
     7132.80000	     6.88784e-17	
     7134.70000	     7.21259e-17	
     7136.60000	     7.62837e-17	
     7138.50000	     7.49331e-17	
     7140.40000	     7.53796e-17	
     7142.30000	     7.76139e-17	
     7144.20000	     8.09625e-17	
     7146.10000	     7.92033e-17	
     7148.00000	     7.79637e-17	
     7149.90000	     8.17316e-17	
     7151.80000	     8.41363e-17	
     7153.70000	     8.96503e-17	
     7155.60000	     9.32797e-17	
     7157.50000	     9.10643e-17	
     7159.40000	     9.07977e-17	
     7161.30000	     8.63173e-17	
     7163.20000	     8.60817e-17	
     7165.10000	     8.86613e-17	
     7167.00000	     8.72866e-17	
     7168.90000	     8.57210e-17	
     7170.80000	     8.93423e-17	
     7172.70000	     8.99028e-17	
     7174.60000	     9.01864e-17	
     7176.50000	     9.12903e-17	
     7178.40000	     9.31569e-17	
     7180.30000	     9.44932e-17	
     7182.20000	     9.58092e-17	
     7184.10000	     9.42705e-17	
     7186.00000	     9.63629e-17	
     7187.90000	     1.00718e-16	
     7189.80000	     1.03280e-16	
     7191.70000	     1.02062e-16	
     7193.60000	     1.01742e-16	
     7195.50000	     9.67275e-17	
     7197.40000	     9.31200e-17	
     7199.30000	     9.01380e-17	
     7201.20000	     8.77475e-17	
     7203.10000	     9.01047e-17	
     7205.00000	     8.71683e-17	
     7206.90000	     9.18493e-17	
     7208.80000	     9.67471e-17	
     7210.70000	     9.90986e-17	
     7212.60000	     9.98979e-17	
     7214.50000	     1.04007e-16	
     7216.40000	     1.07545e-16	
     7218.30000	     1.06777e-16	
     7220.20000	     1.10440e-16	
     7222.10000	     1.12922e-16	
     7224.00000	     1.16453e-16	
     7225.90000	     1.15760e-16	
     7227.80000	     1.13158e-16	
     7229.70000	     1.12591e-16	
     7231.60000	     1.10350e-16	
     7233.50000	     1.14787e-16	
     7235.40000	     1.14021e-16	
     7237.30000	     1.14019e-16	
     7239.20000	     1.12879e-16	
     7241.10000	     1.11592e-16	
     7243.00000	     1.15835e-16	
     7244.90000	     1.21352e-16	
     7246.80000	     1.28331e-16	
     7248.70000	     1.28904e-16	
     7250.60000	     1.26799e-16	
     7252.50000	     1.28674e-16	
     7254.40000	     1.22190e-16	
     7256.30000	     1.25437e-16	
     7258.20000	     1.33555e-16	
     7260.10000	     1.32450e-16	
     7262.00000	     1.33042e-16	
     7263.90000	     1.34640e-16	
     7265.80000	     1.36752e-16	
     7267.70000	     1.38144e-16	
     7269.60000	     1.38685e-16	
     7271.50000	     1.36190e-16	
     7273.40000	     1.32029e-16	
     7275.30000	     1.35266e-16	
     7277.20000	     1.40470e-16	
     7279.10000	     1.35283e-16	
     7281.00000	     1.40589e-16	
     7282.90000	     1.46233e-16	
     7284.80000	     1.49553e-16	
     7286.70000	     1.49169e-16	
     7288.60000	     1.46889e-16	
     7290.50000	     1.45037e-16	
     7292.40000	     1.43781e-16	
     7294.30000	     1.49925e-16	
     7296.20000	     1.55019e-16	
     7298.10000	     1.54981e-16	
     7300.00000	     1.55612e-16	
     7301.90000	     1.52829e-16	
     7303.80000	     1.54772e-16	
     7305.70000	     1.55324e-16	
     7307.60000	     1.56435e-16	
     7309.50000	     1.59833e-16	
     7311.40000	     1.61494e-16	
     7313.30000	     1.64182e-16	
     7315.20000	     1.65760e-16	
     7317.10000	     1.65037e-16	
     7319.00000	     1.66790e-16	
     7320.90000	     1.67629e-16	
     7322.80000	     1.65468e-16	
     7324.70000	     1.61715e-16	
     7326.60000	     1.61233e-16	
     7328.50000	     1.64153e-16	
     7330.40000	     1.69706e-16	
     7332.30000	     1.76171e-16	
     7334.20000	     1.74738e-16	
     7336.10000	     1.76462e-16	
     7338.00000	     1.82406e-16	
     7339.90000	     1.85954e-16	
     7341.80000	     1.75675e-16	
     7343.70000	     1.73295e-16	
     7345.60000	     1.75002e-16	
     7347.50000	     1.76331e-16	
     7349.40000	     1.79896e-16	
     7351.30000	     1.79196e-16	
     7353.20000	     1.76294e-16	
     7355.10000	     1.76896e-16	
     7357.00000	     1.74662e-16	
     7358.90000	     1.75695e-16	
     7360.80000	     1.83318e-16	
     7362.70000	     1.84324e-16	
     7364.60000	     1.82983e-16	
     7366.50000	     1.83273e-16	
     7368.40000	     1.87563e-16	
     7370.30000	     1.88767e-16	
     7372.20000	     1.89056e-16	
     7374.10000	     1.91223e-16	
     7376.00000	     1.93066e-16	
     7377.90000	     1.93580e-16	
     7379.80000	     1.91762e-16	
     7381.70000	     1.89827e-16	
     7383.60000	     1.94339e-16	
     7385.50000	     1.98607e-16	
     7387.40000	     1.96675e-16	
     7389.30000	     1.96374e-16	
     7391.20000	     1.93684e-16	
     7393.10000	     1.89918e-16	
     7395.00000	     1.95686e-16	
     7396.90000	     1.98375e-16	
     7398.80000	     1.94851e-16	
     7400.70000	     1.95859e-16	
     7402.60000	     1.96178e-16	
     7404.50000	     2.01197e-16	
     7406.40000	     2.00539e-16	
     7408.30000	     1.99207e-16	
     7410.20000	     1.98607e-16	
     7412.10000	     1.97765e-16	
     7414.00000	     1.95247e-16	
     7415.90000	     1.94840e-16	
     7417.80000	     1.94901e-16	
     7419.70000	     1.97687e-16	
     7421.60000	     1.97232e-16	
     7423.50000	     2.00037e-16	
     7425.40000	     2.05783e-16	
     7427.30000	     2.05192e-16	
     7429.20000	     2.05962e-16	
     7431.10000	     2.05230e-16	
     7433.00000	     2.04242e-16	
     7434.90000	     2.07178e-16	
     7436.80000	     2.07790e-16	
     7438.70000	     2.06547e-16	
     7440.60000	     2.06211e-16	
     7442.50000	     2.02974e-16	
     7444.40000	     2.01987e-16	
     7446.30000	     2.05377e-16	
     7448.20000	     2.03205e-16	
     7450.10000	     2.05521e-16	
     7452.00000	     2.08977e-16	
     7453.90000	     2.09375e-16	
     7455.80000	     2.13207e-16	
     7457.70000	     2.09753e-16	
     7459.60000	     2.08394e-16	
     7461.50000	     2.06053e-16	
     7463.40000	     2.04937e-16	
     7465.30000	     2.08194e-16	
     7467.20000	     2.11712e-16	
     7469.10000	     2.09274e-16	
     7471.00000	     2.12275e-16	
     7472.90000	     2.11102e-16	
     7474.80000	     2.13602e-16	
     7476.70000	     2.11732e-16	
     7478.60000	     2.12967e-16	
     7480.50000	     2.12075e-16	
     7482.40000	     2.10383e-16	
     7484.30000	     2.12596e-16	
     7486.20000	     2.12632e-16	
     7488.10000	     2.11995e-16	
     7490.00000	     2.15272e-16	
     7491.90000	     2.12685e-16	
     7493.80000	     2.14662e-16	
     7495.70000	     2.13646e-16	
     7497.60000	     2.17898e-16	
     7499.50000	     2.19772e-16	
     7501.40000	     2.21370e-16	
     7503.30000	     2.16372e-16	
     7505.20000	     2.16529e-16	
     7507.10000	     2.17026e-16	
     7509.00000	     2.19774e-16	
     7510.90000	     2.18813e-16	
     7512.80000	     2.19535e-16	
     7514.70000	     2.22263e-16	
     7516.60000	     2.19510e-16	
     7518.50000	     2.22018e-16	
     7520.40000	     2.18059e-16	
     7522.30000	     2.21510e-16	
     7524.20000	     2.13816e-16	
     7526.10000	     2.14141e-16	
     7528.00000	     2.21234e-16	
     7529.90000	     2.24084e-16	
     7531.80000	     2.26521e-16	
     7533.70000	     2.29275e-16	
     7535.60000	     2.32149e-16	
     7537.50000	     2.30622e-16	
     7539.40000	     2.31049e-16	
     7541.30000	     2.30283e-16	
     7543.20000	     2.33657e-16	
     7545.10000	     2.30874e-16	
     7547.00000	     2.29619e-16	
     7548.90000	     2.35405e-16	
     7550.80000	     2.30224e-16	
     7552.70000	     2.30081e-16	
     7554.60000	     2.32766e-16	
     7556.50000	     2.31642e-16	
     7558.40000	     2.32451e-16	
     7560.30000	     2.31554e-16	
     7562.20000	     2.30181e-16	
     7564.10000	     2.32555e-16	
     7566.00000	     2.28690e-16	
     7567.90000	     2.24617e-16	
     7569.80000	     2.32272e-16	
     7571.70000	     2.40945e-16	
     7573.60000	     2.35438e-16	
     7575.50000	     2.30210e-16	
     7577.40000	     2.32605e-16	
     7579.30000	     2.37362e-16	
     7581.20000	     2.40913e-16	
     7583.10000	     2.37153e-16	
     7585.00000	     2.27871e-16	
     7586.90000	     2.14807e-16	
     7588.80000	     2.01423e-16	
     7590.70000	     1.86940e-16	
     7592.60000	     1.64242e-16	
     7594.50000	     1.38743e-16	
     7596.40000	     1.24775e-16	
     7598.30000	     1.07034e-16	
     7600.20000	     9.48080e-17	
     7602.10000	     8.66727e-17	
     7604.00000	     8.65463e-17	
     7605.90000	     8.82618e-17	
     7607.80000	     9.65907e-17	
     7609.70000	     1.09359e-16	
     7611.60000	     1.28067e-16	
     7613.50000	     1.49152e-16	
     7615.40000	     1.74544e-16	
     7617.30000	     1.91218e-16	
     7619.20000	     1.86770e-16	
     7621.10000	     1.68151e-16	
     7623.00000	     1.50939e-16	
     7624.90000	     1.37208e-16	
     7626.80000	     1.23952e-16	
     7628.70000	     1.18144e-16	
     7630.60000	     1.24870e-16	
     7632.50000	     1.27824e-16	
     7634.40000	     1.33310e-16	
     7636.30000	     1.32239e-16	
     7638.20000	     1.37927e-16	
     7640.10000	     1.43810e-16	
     7642.00000	     1.45879e-16	
     7643.90000	     1.53010e-16	
     7645.80000	     1.57206e-16	
     7647.70000	     1.56004e-16	
     7649.60000	     1.61461e-16	
     7651.50000	     1.62659e-16	
     7653.40000	     1.67541e-16	
     7655.30000	     1.74412e-16	
     7657.20000	     1.76275e-16	
     7659.10000	     1.68001e-16	
     7661.00000	     1.39039e-16	
     7662.90000	     1.19483e-16	
     7664.80000	     1.23946e-16	
     7666.70000	     1.37878e-16	
     7668.60000	     1.47423e-16	
     7670.50000	     1.51501e-16	
     7672.40000	     1.55201e-16	
     7674.30000	     1.56680e-16	
     7676.20000	     1.60064e-16	
     7678.10000	     1.67980e-16	
     7680.00000	     1.69685e-16	
     7681.90000	     1.67520e-16	
     7683.80000	     1.74068e-16	
     7685.70000	     1.73983e-16	
     7687.60000	     1.76387e-16	
     7689.50000	     1.76982e-16	
     7691.40000	     1.77460e-16	
     7693.30000	     1.74384e-16	
     7695.20000	     1.51792e-16	
     7697.10000	     1.39489e-16	
     7699.00000	     1.45555e-16	
     7700.90000	     1.60902e-16	
     7702.80000	     1.68103e-16	
     7704.70000	     1.65787e-16	
     7706.60000	     1.71380e-16	
     7708.50000	     1.72947e-16	
     7710.40000	     1.77439e-16	
     7712.30000	     1.77069e-16	
     7714.20000	     1.79784e-16	
     7716.10000	     1.80616e-16	
     7718.00000	     1.81404e-16	
     7719.90000	     1.84846e-16	
     7721.80000	     1.86976e-16	
     7723.70000	     1.89267e-16	
     7725.60000	     1.89862e-16	
     7727.50000	     1.91064e-16	
     7729.40000	     1.98829e-16	
     7731.30000	     1.99843e-16	
     7733.20000	     1.94630e-16	
     7735.10000	     1.96124e-16	
     7737.00000	     1.96774e-16	
     7738.90000	     1.96583e-16	
     7740.80000	     1.93839e-16	
     7742.70000	     1.84041e-16	
     7744.60000	     1.77979e-16	
     7746.50000	     1.69311e-16	
     7748.40000	     1.69240e-16	
     7750.30000	     1.71879e-16	
     7752.20000	     1.79543e-16	
     7754.10000	     1.77516e-16	
     7756.00000	     1.73104e-16	
     7757.90000	     1.73568e-16	
     7759.80000	     1.75896e-16	
     7761.70000	     1.75972e-16	
     7763.60000	     1.82152e-16	
     7765.50000	     1.82611e-16	
     7767.40000	     1.82621e-16	
     7769.30000	     1.86692e-16	
     7771.20000	     1.89717e-16	
     7773.10000	     1.88794e-16	
     7775.00000	     1.89393e-16	
     7776.90000	     1.87857e-16	
     7778.80000	     1.85659e-16	
     7780.70000	     1.80514e-16	
     7782.60000	     1.79335e-16	
     7784.50000	     1.81114e-16	
     7786.40000	     1.80183e-16	
     7788.30000	     1.86294e-16	
     7790.20000	     1.85550e-16	
     7792.10000	     1.84419e-16	
     7794.00000	     1.88087e-16	
     7795.90000	     1.89638e-16	
     7797.80000	     1.86405e-16	
     7799.70000	     1.88620e-16	
     7801.60000	     1.94804e-16	
     7803.50000	     1.98816e-16	
     7805.40000	     2.00727e-16	
     7807.30000	     1.99031e-16	
     7809.20000	     1.99884e-16	
     7811.10000	     2.02198e-16	
     7813.00000	     2.04834e-16	
     7814.90000	     2.01893e-16	
     7816.80000	     2.03140e-16	
     7818.70000	     2.02038e-16	
     7820.60000	     1.98902e-16	
     7822.50000	     1.97131e-16	
     7824.40000	     1.96072e-16	
     7826.30000	     1.92280e-16	
     7828.20000	     1.85974e-16	
     7830.10000	     1.86607e-16	
     7832.00000	     1.90226e-16	
     7833.90000	     1.91307e-16	
     7835.80000	     1.91434e-16	
     7837.70000	     1.95497e-16	
     7839.60000	     1.91491e-16	
     7841.50000	     1.95992e-16	
     7843.40000	     2.00263e-16	
     7845.30000	     2.01554e-16	
     7847.20000	     2.01732e-16	
     7849.10000	     2.01669e-16	
     7851.00000	     2.04787e-16	
     7852.90000	     2.07731e-16	
     7854.80000	     2.05720e-16	
     7856.70000	     2.02650e-16	
     7858.60000	     1.98157e-16	
     7860.50000	     1.97643e-16	
     7862.40000	     1.99069e-16	
     7864.30000	     1.99795e-16	
     7866.20000	     2.06134e-16	
     7868.10000	     2.05233e-16	
     7870.00000	     2.03197e-16	
     7871.90000	     2.06737e-16	
     7873.80000	     2.05683e-16	
     7875.70000	     2.10534e-16	
     7877.60000	     2.09695e-16	
     7879.50000	     2.13777e-16	
     7881.40000	     2.15743e-16	
     7883.30000	     2.15795e-16	
     7885.20000	     2.17659e-16	
     7887.10000	     2.16497e-16	
     7889.00000	     2.17202e-16	
     7890.90000	     2.21214e-16	
     7892.80000	     2.22334e-16	
     7894.70000	     2.19865e-16	
     7896.60000	     2.16174e-16	
     7898.50000	     2.16009e-16	
     7900.40000	     2.20411e-16	
     7902.30000	     2.17387e-16	
     7904.20000	     2.11515e-16	
     7906.10000	     2.12693e-16	
     7908.00000	     2.10958e-16	
     7909.90000	     2.08295e-16	
     7911.80000	     2.09778e-16	
     7913.70000	     2.14160e-16	
     7915.60000	     2.14592e-16	
     7917.50000	     2.12407e-16	
     7919.40000	     2.15799e-16	
     7921.30000	     2.15232e-16	
     7923.20000	     2.13548e-16	
     7925.10000	     2.16222e-16	
     7927.00000	     2.17640e-16	
     7928.90000	     2.20663e-16	
     7930.80000	     2.28219e-16	
     7932.70000	     2.24054e-16	
     7934.60000	     2.20012e-16	
     7936.50000	     2.22464e-16	
     7938.40000	     2.19783e-16	
     7940.30000	     2.18220e-16	
     7942.20000	     2.12992e-16	
     7944.10000	     2.16333e-16	
     7946.00000	     2.21444e-16	
     7947.90000	     2.20317e-16	
     7949.80000	     2.28018e-16	
     7951.70000	     2.32321e-16	
     7953.60000	     2.33855e-16	
     7955.50000	     2.31025e-16	
     7957.40000	     2.32522e-16	
     7959.30000	     2.32260e-16	
     7961.20000	     2.33214e-16	
     7963.10000	     2.25527e-16	
     7965.00000	     2.38705e-16	
     7966.90000	     2.39672e-16	
     7968.80000	     2.42719e-16	
     7970.70000	     2.38318e-16	
     7972.60000	     2.38879e-16	
     7974.50000	     2.37974e-16	
     7976.40000	     2.35640e-16	
     7978.30000	     2.33211e-16	
     7980.20000	     2.39957e-16	
     7982.10000	     2.38732e-16	
     7984.00000	     2.33455e-16	
     7985.90000	     2.32051e-16	
     7987.80000	     2.34036e-16	
     7989.70000	     2.34493e-16	
     7991.60000	     2.41176e-16	
     7993.50000	     2.36865e-16	
     7995.40000	     2.36044e-16	
     7997.30000	     2.40470e-16	
     7999.20000	     2.43319e-16	
     8001.10000	     2.45571e-16	
     8003.00000	     2.42808e-16	
     8004.90000	     2.43169e-16	
     8006.80000	     2.39451e-16	
     8008.70000	     2.42441e-16	
     8010.60000	     2.47067e-16	
     8012.50000	     2.52270e-16	
     8014.40000	     2.50105e-16	
     8016.30000	     2.50193e-16	
     8018.20000	     2.48348e-16	
     8020.10000	     2.47284e-16	
     8022.00000	     2.48885e-16	
     8023.90000	     2.52622e-16	
     8025.80000	     2.48227e-16	
     8027.70000	     2.52178e-16	
     8029.60000	     2.55651e-16	
     8031.50000	     2.56296e-16	
     8033.40000	     2.57030e-16	
     8035.30000	     2.57810e-16	
     8037.20000	     2.59572e-16	
     8039.10000	     2.59252e-16	
     8041.00000	     2.55125e-16	
     8042.90000	     2.54603e-16	
     8044.80000	     2.56299e-16	
     8046.70000	     2.58087e-16	
     8048.60000	     2.64854e-16	
     8050.50000	     2.66416e-16	
     8052.40000	     2.64082e-16	
     8054.30000	     2.67924e-16	
     8056.20000	     2.65261e-16	
     8058.10000	     2.64044e-16	
     8060.00000	     2.69046e-16	
     8061.90000	     2.68618e-16	
     8063.80000	     2.64686e-16	
     8065.70000	     2.64334e-16	
     8067.60000	     2.65561e-16	
     8069.50000	     2.68044e-16	
     8071.40000	     2.68881e-16	
     8073.30000	     2.69418e-16	
     8075.20000	     2.72376e-16	
     8077.10000	     2.72330e-16	
     8079.00000	     2.71982e-16	
     8080.90000	     2.76548e-16	
     8082.80000	     2.72992e-16	
     8084.70000	     2.75915e-16	
     8086.60000	     2.77520e-16	
     8088.50000	     2.74170e-16	
     8090.40000	     2.75585e-16	
     8092.30000	     2.79547e-16	
     8094.20000	     2.80006e-16	
     8096.10000	     2.75414e-16	
     8098.00000	     2.74777e-16	
     8099.90000	     2.75131e-16	
     8101.80000	     2.77437e-16	
     8103.70000	     2.75565e-16	
     8105.60000	     2.76127e-16	
     8107.50000	     2.80576e-16	
     8109.40000	     2.81106e-16	
     8111.30000	     2.86526e-16	
     8113.20000	     2.78987e-16	
     8115.10000	     2.75381e-16	
     8117.00000	     2.73877e-16	
     8118.90000	     2.83037e-16	
     8120.80000	     2.80390e-16	
     8122.70000	     2.82838e-16	
     8124.60000	     2.86196e-16	
     8126.50000	     2.82760e-16	
     8128.40000	     2.79420e-16	
     8130.30000	     2.76646e-16	
     8132.20000	     2.80686e-16	
     8134.10000	     2.80864e-16	
     8136.00000	     2.78450e-16	
     8137.90000	     2.76893e-16	
     8139.80000	     2.76525e-16	
     8141.70000	     2.75974e-16	
     8143.60000	     2.77933e-16	
     8145.50000	     2.71352e-16	
     8147.40000	     2.73815e-16	
     8149.30000	     2.73733e-16	
     8151.20000	     2.73058e-16	
     8153.10000	     2.76045e-16	
     8155.00000	     2.71106e-16	
     8156.90000	     2.68847e-16	
     8158.80000	     2.63345e-16	
     8160.70000	     2.61433e-16	
     8162.60000	     2.67809e-16	
     8164.50000	     2.71920e-16	
     8166.40000	     2.72611e-16	
     8168.30000	     2.78995e-16	
     8170.20000	     2.81662e-16	
     8172.10000	     2.82925e-16	
     8174.00000	     2.74595e-16	
     8175.90000	     2.57474e-16	
     8177.80000	     2.37912e-16	
     8179.70000	     2.21920e-16	
     8181.60000	     2.18662e-16	
     8183.50000	     2.34387e-16	
     8185.40000	     2.51842e-16	
     8187.30000	     2.55682e-16	
     8189.20000	     2.37543e-16	
     8191.10000	     2.10116e-16	
     8193.00000	     2.01762e-16	
     8194.90000	     2.13691e-16	
     8196.80000	     2.37163e-16	
     8198.70000	     2.58802e-16	
     8200.60000	     2.74116e-16	
     8202.50000	     2.80330e-16	
     8204.40000	     2.84484e-16	
     8206.30000	     2.81992e-16	
     8208.20000	     2.73806e-16	
     8210.10000	     2.77630e-16	
     8212.00000	     2.80429e-16	
     8213.90000	     2.76792e-16	
     8215.80000	     2.79436e-16	
     8217.70000	     2.76117e-16	
     8219.60000	     2.74536e-16	
     8221.50000	     2.76304e-16	
     8223.40000	     2.65676e-16	
     8225.30000	     2.53945e-16	
     8227.20000	     2.51556e-16	
     8229.10000	     2.56694e-16	
     8231.00000	     2.68818e-16	
     8232.90000	     2.75549e-16	
     8234.80000	     2.82575e-16	
     8236.70000	     2.88158e-16	
     8238.60000	     2.86243e-16	
     8240.50000	     2.82514e-16	
     8242.40000	     2.86164e-16	
     8244.30000	     2.92863e-16	
     8246.20000	     2.99165e-16	
     8248.10000	     2.98166e-16	
     8250.00000	     2.85727e-16	
     8251.90000	     2.80773e-16	
     8253.80000	     2.76392e-16	
     8255.70000	     2.83437e-16	
     8257.60000	     2.87062e-16	
     8259.50000	     2.87561e-16	
     8261.40000	     2.90893e-16	
     8263.30000	     2.89716e-16	
     8265.20000	     2.91604e-16	
     8267.10000	     2.90655e-16	
     8269.00000	     2.80437e-16	
     8270.90000	     2.74366e-16	
     8272.80000	     2.76834e-16	
     8274.70000	     2.75388e-16	
     8276.60000	     2.77738e-16	
     8278.50000	     2.76803e-16	
     8280.40000	     2.73037e-16	
     8282.30000	     2.82020e-16	
     8284.20000	     2.80521e-16	
     8286.10000	     2.67120e-16	
     8288.00000	     2.71619e-16	
     8289.90000	     2.71558e-16	
     8291.80000	     2.78535e-16	
     8293.70000	     2.83985e-16	
     8295.60000	     2.83866e-16	
     8297.50000	     2.73288e-16	
     8299.40000	     2.76753e-16	
     8301.30000	     2.67438e-16	
     8303.20000	     2.64612e-16	
     8305.10000	     2.70064e-16	
     8307.00000	     2.79437e-16	
     8308.90000	     2.79228e-16	
     8310.80000	     2.82909e-16	
     8312.70000	     2.79709e-16	
     8314.60000	     2.74279e-16	
     8316.50000	     2.78536e-16	
     8318.40000	     2.76516e-16	
     8320.30000	     2.76772e-16	
     8322.20000	     2.74238e-16	
     8324.10000	     2.71913e-16	
     8326.00000	     2.73013e-16	
     8327.90000	     2.77927e-16	
     8329.80000	     2.74421e-16	
     8331.70000	     2.72407e-16	
     8333.60000	     2.73024e-16	
     8335.50000	     2.69942e-16	
     8337.40000	     2.79058e-16	
     8339.30000	     2.89506e-16	
     8341.20000	     2.86178e-16	
     8343.10000	     2.83124e-16	
     8345.00000	     2.78129e-16	
     8346.90000	     2.86235e-16	
     8348.80000	     2.85846e-16	
     8350.70000	     2.75072e-16	
     8352.60000	     2.82943e-16	
     8354.50000	     2.83770e-16	
     8356.40000	     2.85287e-16	
     8358.30000	     2.79422e-16	
     8360.20000	     2.75164e-16	
     8362.10000	     2.76264e-16	
     8364.00000	     2.79074e-16	
     8365.90000	     2.79409e-16	
     8367.80000	     2.86009e-16	
     8369.70000	     2.87105e-16	
     8371.60000	     2.76782e-16	
     8373.50000	     2.73295e-16	
     8375.40000	     2.73050e-16	
     8377.30000	     2.71794e-16	
     8379.20000	     2.66243e-16	
     8381.10000	     2.66325e-16	
     8383.00000	     2.68190e-16	
     8384.90000	     2.65362e-16	
     8386.80000	     2.65649e-16	
     8388.70000	     2.78630e-16	
     8390.60000	     2.82442e-16	
     8392.50000	     2.76938e-16	
     8394.40000	     2.80477e-16	
     8396.30000	     2.86988e-16	
     8398.20000	     2.84926e-16	
     8400.10000	     2.85871e-16	
     8402.00000	     2.92462e-16	
     8403.90000	     2.89605e-16	
     8405.80000	     2.86036e-16	
     8407.70000	     2.77010e-16	
     8409.60000	     2.77147e-16	
     8411.50000	     2.80799e-16	
     8413.40000	     2.89532e-16	
     8415.30000	     3.00287e-16	
     8417.20000	     2.88902e-16	
     8419.10000	     2.82387e-16	
     8421.00000	     2.77742e-16	
     8422.90000	     2.70588e-16	
     8424.80000	     2.68395e-16	
     8426.70000	     2.70102e-16	
     8428.60000	     2.73949e-16	
     8430.50000	     2.57931e-16	
     8432.40000	     2.41835e-16	
     8434.30000	     2.46518e-16	
     8436.20000	     2.59909e-16	
     8438.10000	     2.68891e-16	
     8440.00000	     2.63510e-16	
     8441.90000	     2.60415e-16	
     8443.80000	     2.62050e-16	
     8445.70000	     2.68422e-16	
     8447.60000	     2.65523e-16	
     8449.50000	     2.57948e-16	
     8451.40000	     2.52115e-16	
     8453.30000	     2.55009e-16	
     8455.20000	     2.57242e-16	
     8457.10000	     2.52813e-16	
     8459.00000	     2.64059e-16	
     8460.90000	     2.60106e-16	
     8462.80000	     2.50422e-16	
     8464.70000	     2.40276e-16	
     8466.60000	     2.35322e-16	
     8468.50000	     2.44437e-16	
     8470.40000	     2.55248e-16	
     8472.30000	     2.55721e-16	
     8474.20000	     2.58633e-16	
     8476.10000	     2.62554e-16	
     8478.00000	     2.62962e-16	
     8479.90000	     2.62518e-16	
     8481.80000	     2.58977e-16	
     8483.70000	     2.62000e-16	
     8485.60000	     2.61821e-16	
     8487.50000	     2.59305e-16	
     8489.40000	     2.63610e-16	
     8491.30000	     2.59559e-16	
     8493.20000	     2.41139e-16	
     8495.10000	     2.34371e-16	
     8497.00000	     2.40563e-16	
     8498.90000	     2.55943e-16	
     8500.80000	     2.60965e-16	
     8502.70000	     2.51898e-16	
     8504.60000	     2.46610e-16	
     8506.50000	     2.58495e-16	
     8508.40000	     2.49414e-16	
     8510.30000	     2.52790e-16	
     8512.20000	     2.52755e-16	
     8514.10000	     2.51712e-16	
     8516.00000	     2.54374e-16	
     8517.90000	     2.55051e-16	
     8519.80000	     2.58086e-16	
     8521.70000	     2.61650e-16	
     8523.60000	     2.59889e-16	
     8525.50000	     2.65128e-16	
     8527.40000	     2.61847e-16	
     8529.30000	     2.57905e-16	
     8531.20000	     2.59685e-16	
     8533.10000	     2.62642e-16	
     8535.00000	     2.57011e-16	
     8536.90000	     2.38383e-16	
     8538.80000	     2.18374e-16	
     8540.70000	     2.25856e-16	
     8542.60000	     2.40585e-16	
     8544.50000	     2.54430e-16	
     8546.40000	     2.70688e-16	
     8548.30000	     2.72505e-16	
     8550.20000	     2.72792e-16	
     8552.10000	     2.71386e-16	
     8554.00000	     2.72048e-16	
     8555.90000	     2.72648e-16	
     8557.80000	     2.68119e-16	
     8559.70000	     2.71688e-16	
     8561.60000	     2.73395e-16	
     8563.50000	     2.71200e-16	
     8565.40000	     2.71810e-16	
     8567.30000	     2.69973e-16	
     8569.20000	     2.70270e-16	
     8571.10000	     2.73729e-16	
     8573.00000	     2.78631e-16	
     8574.90000	     2.80613e-16	
     8576.80000	     2.75623e-16	
     8578.70000	     2.70976e-16	
     8580.60000	     2.72824e-16	
     8582.50000	     2.74643e-16	
     8584.40000	     2.79558e-16	
     8586.30000	     2.78728e-16	
     8588.20000	     2.76857e-16	
     8590.10000	     2.73399e-16	
     8592.00000	     2.76777e-16	
     8593.90000	     2.76832e-16	
     8595.80000	     2.73749e-16	
     8597.70000	     2.79092e-16	
     8599.60000	     2.84807e-16	
     8601.50000	     2.83406e-16	
     8603.40000	     2.81811e-16	
     8605.30000	     2.84249e-16	
     8607.20000	     2.80559e-16	
     8609.10000	     2.81645e-16	
     8611.00000	     2.84676e-16	
     8612.90000	     2.82231e-16	
     8614.80000	     2.81586e-16	
     8616.70000	     2.85268e-16	
     8618.60000	     2.86901e-16	
     8620.50000	     2.83862e-16	
     8622.40000	     2.85161e-16	
     8624.30000	     2.86269e-16	
     8626.20000	     2.82437e-16	
     8628.10000	     2.84194e-16	
     8630.00000	     2.89079e-16	
     8631.90000	     2.84556e-16	
     8633.80000	     2.86039e-16	
     8635.70000	     2.82587e-16	
     8637.60000	     2.83531e-16	
     8639.50000	     2.84710e-16	
     8641.40000	     2.83396e-16	
     8643.30000	     2.82089e-16	
     8645.20000	     2.87275e-16	
     8647.10000	     2.88113e-16	
     8649.00000	     2.85547e-16	
     8650.90000	     2.92683e-16	
     8652.80000	     2.89720e-16	
     8654.70000	     2.84126e-16	
     8656.60000	     2.66881e-16	
     8658.50000	     2.43379e-16	
     8660.40000	     2.43630e-16	
     8662.30000	     2.60465e-16	
     8664.20000	     2.78624e-16	
     8666.10000	     2.88754e-16	
     8668.00000	     2.85923e-16	
     8669.90000	     2.85806e-16	
     8671.80000	     2.82450e-16	
     8673.70000	     2.81526e-16	
     8675.60000	     2.92506e-16	
     8677.50000	     2.90452e-16	
     8679.40000	     2.88032e-16	
     8681.30000	     2.92134e-16	
     8683.20000	     2.74822e-16	
     8685.10000	     2.67605e-16	
     8687.00000	     2.69454e-16	
     8688.90000	     2.75554e-16	
     8690.80000	     2.83032e-16	
     8692.70000	     2.83161e-16	
     8694.60000	     2.83932e-16	
     8696.50000	     2.84516e-16	
     8698.40000	     2.88885e-16	
     8700.30000	     2.90745e-16	
     8702.20000	     2.92084e-16	
     8704.10000	     2.92185e-16	
     8706.00000	     2.91097e-16	
     8707.90000	     2.86676e-16	
     8709.80000	     2.81797e-16	
     8711.70000	     2.87698e-16	
     8713.60000	     2.92414e-16	
     8715.50000	     2.87719e-16	
     8717.40000	     2.90605e-16	
     8719.30000	     2.93789e-16	
     8721.20000	     2.89077e-16	
     8723.10000	     2.96290e-16	
     8725.00000	     3.02736e-16	
     8726.90000	     2.95461e-16	
     8728.80000	     2.91684e-16	
     8730.70000	     2.86223e-16	
     8732.60000	     2.82564e-16	
     8734.50000	     2.86075e-16	
     8736.40000	     2.91504e-16	
     8738.30000	     2.88495e-16	
     8740.20000	     2.95905e-16	
     8742.10000	     3.01163e-16	
     8744.00000	     2.94916e-16	
     8745.90000	     2.99312e-16	
     8747.80000	     2.94000e-16	
     8749.70000	     3.00053e-16	
     8751.60000	     2.98166e-16	
     8753.50000	     2.95588e-16	
     8755.40000	     3.03146e-16	
     8757.30000	     3.01633e-16	
     8759.20000	     3.07408e-16	
     8761.10000	     3.11724e-16	
     8763.00000	     2.99955e-16	
     8764.90000	     3.01128e-16	
     8766.80000	     3.06960e-16	
     8768.70000	     3.05793e-16	
     8770.60000	     3.05988e-16	
     8772.50000	     3.06608e-16	
     8774.40000	     3.07840e-16	
     8776.30000	     3.03239e-16	
     8778.20000	     2.96113e-16	
     8780.10000	     3.00224e-16	
     8782.00000	     2.98418e-16	
     8783.90000	     3.02855e-16	
     8785.80000	     3.03698e-16	
     8787.70000	     3.03876e-16	
     8789.60000	     3.06972e-16	
     8791.50000	     3.04287e-16	
     8793.40000	     3.11886e-16	
     8795.30000	     3.09423e-16	
     8797.20000	     2.98416e-16	
     8799.10000	     2.97497e-16	
     8801.00000	     2.88974e-16	
     8802.90000	     2.80287e-16	
     8804.80000	     2.87940e-16	
     8806.70000	     2.98289e-16	
     8808.60000	     3.09462e-16	
     8810.50000	     3.15540e-16	
     8812.40000	     3.17591e-16	
     8814.30000	     3.19599e-16	
     8816.20000	     3.10971e-16	
     8818.10000	     3.02577e-16	
     8820.00000	     2.93126e-16	
     8821.90000	     2.94679e-16	
     8823.80000	     3.02980e-16	
     8825.70000	     3.07400e-16	
     8827.60000	     3.16362e-16	
     8829.50000	     3.14421e-16	
     8831.40000	     3.06229e-16	
     8833.30000	     3.07459e-16	
     8835.20000	     3.10614e-16	
     8837.10000	     3.13289e-16	
     8839.00000	     3.13151e-16	
     8840.90000	     3.15034e-16	
     8842.80000	     3.16815e-16	
     8844.70000	     3.13189e-16	
     8846.60000	     3.08031e-16	
     8848.50000	     3.16239e-16	
     8850.40000	     3.16841e-16	
     8852.30000	     3.18098e-16	
     8854.20000	     3.16074e-16	
     8856.10000	     3.02124e-16	
     8858.00000	     2.92991e-16	
     8859.90000	     2.91092e-16	
     8861.80000	     2.96937e-16	
     8863.70000	     2.99735e-16	
     8865.60000	     2.84294e-16	
     8867.50000	     2.86702e-16	
     8869.40000	     2.81952e-16	
     8871.30000	     2.82223e-16	
     8873.20000	     2.87616e-16	
     8875.10000	     2.90574e-16	
     8877.00000	     2.90114e-16	
     8878.90000	     2.92909e-16	
     8880.80000	     2.85766e-16	
     8882.70000	     2.85130e-16	
     8884.60000	     2.98176e-16	
     8886.50000	     3.73099e-16	
     8888.40000	     3.21635e-16	
     8890.30000	     2.88014e-16	
     8892.20000	     2.96546e-16	
     8894.10000	     2.95538e-16	
     8896.00000	     2.97290e-16	
     8897.90000	     2.90441e-16	
     8899.80000	     3.01642e-16	
     8901.70000	     3.06679e-16	
     8903.60000	     2.98237e-16	
     8905.50000	     3.02166e-16	
     8907.40000	     3.07371e-16	
     8909.30000	     3.11216e-16	
     8911.20000	     3.08915e-16	
     8913.10000	     3.07191e-16	
     8915.00000	     3.02481e-16	
     8916.90000	     3.09413e-16	
     8918.80000	     2.93236e-16	
     8920.70000	     2.92579e-16	
     8922.60000	     3.06545e-16	
     8924.50000	     3.09066e-16	
     8926.40000	     3.05775e-16	
     8928.30000	     3.04718e-16	
     8930.20000	     3.08330e-16	
     8932.10000	     3.05094e-16	
     8934.00000	     3.05263e-16	
     8935.90000	     3.00578e-16	
     8937.80000	     2.99606e-16	
     8939.70000	     3.00864e-16	
     8941.60000	     2.92740e-16	
     8943.50000	     2.98088e-16	
     8945.40000	     2.92354e-16	
     8947.30000	     2.95436e-16	
     8949.20000	     2.89134e-16	
     8951.10000	     2.88884e-16	
     8953.00000	     2.86120e-16	
     8954.90000	     3.01093e-16	
     8956.80000	     2.94072e-16	
     8958.70000	     2.88167e-16	
     8960.60000	     2.88835e-16	
     8962.50000	     2.79049e-16	
     8964.40000	     2.84085e-16	
     8966.30000	     2.86653e-16	
     8968.20000	     2.87487e-16	
     8970.10000	     2.86460e-16	
     8972.00000	     2.83173e-16	
     8973.90000	     2.92331e-16	
     8975.80000	     2.93086e-16	
     8977.70000	     2.90214e-16	
     8979.60000	     2.95653e-16	
     8981.50000	     3.01289e-16	
     8983.40000	     2.84773e-16	
     8985.30000	     2.68599e-16	
     8987.20000	     2.60654e-16	
     8989.10000	     2.64189e-16	
     8991.00000	     2.84052e-16	
     8992.90000	     3.01235e-16	
     8994.80000	     2.96660e-16	
     8996.70000	     2.79913e-16	
     8998.60000	     2.72585e-16	
     9000.50000	     2.83580e-16	
     9002.40000	     2.92964e-16	
     9004.30000	     2.89741e-16	
     9006.20000	     2.89885e-16	
     9008.10000	     2.87833e-16	
     9010.00000	     2.93978e-16	
     9011.90000	     2.92158e-16	
     9013.80000	     2.86534e-16	
     9015.70000	     2.87154e-16	
     9017.60000	     2.90217e-16	
     9019.50000	     2.86247e-16	
     9021.40000	     2.80863e-16	
     9023.30000	     2.83037e-16	
     9025.20000	     2.83443e-16	
     9027.10000	     2.92245e-16	
     9029.00000	     2.98427e-16	
     9030.90000	     3.03041e-16	
     9032.80000	     3.10938e-16	
     9034.70000	     3.10222e-16	
     9036.60000	     3.10568e-16	
     9038.50000	     3.10784e-16	
     9040.40000	     3.13535e-16	
     9042.30000	     3.12483e-16	
     9044.20000	     3.08165e-16	
     9046.10000	     3.09161e-16	
     9048.00000	     3.05740e-16	
     9049.90000	     3.07869e-16	
     9051.80000	     3.10033e-16	
     9053.70000	     3.12784e-16	
     9055.60000	     3.08886e-16	
     9057.50000	     2.98845e-16	
     9059.40000	     2.99426e-16	
     9061.30000	     3.04675e-16	
     9063.20000	     3.00758e-16	
     9065.10000	     2.95197e-16	
     9067.00000	     2.85098e-16	
     9068.90000	     2.85435e-16	
     9070.80000	     2.87976e-16	
     9072.70000	     3.00645e-16	
     9074.60000	     3.03464e-16	
     9076.50000	     2.94136e-16	
     9078.40000	     2.98943e-16	
     9080.30000	     3.05799e-16	
     9082.20000	     2.96138e-16	
     9084.10000	     2.85438e-16	
     9086.00000	     2.83933e-16	
     9087.90000	     2.91953e-16	
     9089.80000	     2.92614e-16	
     9091.70000	     3.03670e-16	
     9093.60000	     3.05130e-16	
     9095.50000	     2.98886e-16	
     9097.40000	     2.96961e-16	
     9099.30000	     3.00498e-16	
     9101.20000	     2.97800e-16	
     9103.10000	     2.98145e-16	
     9105.00000	     2.98904e-16	
     9106.90000	     3.01965e-16	
     9108.80000	     3.18579e-16	
     9110.70000	     3.25811e-16	
     9112.60000	     3.10241e-16	
     9114.50000	     2.93100e-16	
     9116.40000	     2.90982e-16	
     9118.30000	     2.99699e-16	
     9120.20000	     3.09502e-16	
     9122.10000	     3.13961e-16	
     9124.00000	     3.06867e-16	
     9125.90000	     2.95879e-16	
     9127.80000	     2.89194e-16	
     9129.70000	     2.89946e-16	
     9131.60000	     2.88313e-16	
     9133.50000	     2.80714e-16	
     9135.40000	     2.89412e-16	
     9137.30000	     3.00612e-16	
     9139.20000	     3.12039e-16	
     9141.10000	     3.13913e-16	
     9143.00000	     3.18677e-16	
     9144.90000	     3.17573e-16	
     9146.80000	     3.15870e-16	
     9148.70000	     3.03062e-16	
     9150.60000	     2.92041e-16	
     9152.50000	     2.84866e-16	
     9154.40000	     2.89084e-16	
     9156.30000	     2.97389e-16	
     9158.20000	     3.12962e-16	
     9160.10000	     3.15341e-16	
     9162.00000	     3.16894e-16	
     9163.90000	     3.21239e-16	
     9165.80000	     3.11129e-16	
     9167.70000	     3.13195e-16	
     9169.60000	     3.04047e-16	
     9171.50000	     2.91746e-16	
     9173.40000	     2.88379e-16	
     9175.30000	     3.01760e-16	
     9177.20000	     3.07965e-16	
     9179.10000	     3.13956e-16	
     9181.00000	     3.10621e-16	
     9182.90000	     3.11889e-16	
     9184.80000	     3.10382e-16	
     9186.70000	     3.22605e-16	
     9188.60000	     3.27807e-16	
     9190.50000	     3.16011e-16	
     9192.40000	     3.04622e-16	
     9194.30000	     3.11489e-16	
     9196.20000	     3.23363e-16	
     9198.10000	     3.27475e-16	
     9200.00000	     3.33624e-16	
     9201.90000	     3.28186e-16	
     9203.80000	     3.19347e-16	
     9205.70000	     3.14911e-16	
     9207.60000	     3.15126e-16	
     9209.50000	     3.09386e-16	
     9211.40000	     3.10650e-16	
     9213.30000	     3.08731e-16	
     9215.20000	     3.16168e-16	
     9217.10000	     3.21882e-16	
     9219.00000	     3.25539e-16	
     9220.90000	     3.16445e-16	
     9222.80000	     3.20968e-16	
     9224.70000	     3.14444e-16	
     9226.60000	     3.16473e-16	
     9228.50000	     3.11391e-16	
     9230.40000	     3.09012e-16	
     9232.30000	     3.14239e-16	
     9234.20000	     3.07575e-16	
     9236.10000	     3.12382e-16	
     9238.00000	     3.16387e-16	
     9239.90000	     3.10617e-16	
     9241.80000	     3.10320e-16	
     9243.70000	     3.08073e-16	
     9245.60000	     3.04939e-16	
     9247.50000	     3.08741e-16	
     9249.40000	     3.12606e-16	
     9251.30000	     3.08652e-16	
     9253.20000	     3.16552e-16	
     9255.10000	     3.19422e-16	
     9257.00000	     3.13460e-16	
     9258.90000	     3.13551e-16	
     9260.80000	     3.16824e-16	
     9262.70000	     3.20556e-16	
     9264.60000	     3.27900e-16	
     9266.50000	     3.28805e-16	
     9268.40000	     3.24650e-16	
     9270.30000	     3.17930e-16	
     9272.20000	     3.16070e-16	
     9274.10000	     3.05847e-16	
     9276.00000	     2.97082e-16	
     9277.90000	     2.98979e-16	
     9279.80000	     2.98940e-16	
     9281.70000	     2.92827e-16	
     9283.60000	     2.92711e-16	
     9285.50000	     2.97539e-16	
     9287.40000	     2.96771e-16	
     9289.30000	     2.95939e-16	
     9291.20000	     2.92165e-16	
     9293.10000	     2.86520e-16	
     9295.00000	     2.74256e-16	
     9296.90000	     2.69862e-16	
     9298.80000	     2.80031e-16	
     9300.70000	     2.81062e-16	
     9302.60000	     2.79990e-16	
     9304.50000	     2.68286e-16	
     9306.40000	     2.59256e-16	
     9308.30000	     2.68911e-16	
     9310.20000	     2.72697e-16	
     9312.10000	     2.61450e-16	
     9314.00000	     2.40423e-16	
     9315.90000	     2.44895e-16	
     9317.80000	     2.59042e-16	
     9319.70000	     2.48113e-16	
     9321.60000	     2.23895e-16	
     9323.50000	     2.21750e-16	
     9325.40000	     2.46363e-16	
     9327.30000	     2.59615e-16	
     9329.20000	     2.51484e-16	
     9331.10000	     2.32217e-16	
     9333.00000	     2.20687e-16	
     9334.90000	     2.27284e-16	
     9336.80000	     2.26353e-16	
     9338.70000	     2.15933e-16	
     9340.60000	     1.81932e-16	
     9342.50000	     1.80647e-16	
     9344.40000	     2.23654e-16	
     9346.30000	     2.63877e-16	
     9348.20000	     2.77619e-16	
     9350.10000	     2.71132e-16	
     9352.00000	     2.26025e-16	
     9353.90000	     2.04734e-16	
     9355.80000	     2.04070e-16	
     9357.70000	     2.30602e-16	
     9359.60000	     2.60656e-16	
     9361.50000	     2.59004e-16	
     9363.40000	     2.34223e-16	
     9365.30000	     2.24363e-16	
     9367.20000	     2.09315e-16	
     9369.10000	     2.06882e-16	
     9371.00000	     2.45792e-16	
     9372.90000	     2.45965e-16	
     9374.80000	     2.35763e-16	
     9376.70000	     2.06042e-16	
     9378.60000	     2.28756e-16	
     9380.50000	     2.43071e-16	
     9382.40000	     2.53335e-16	
     9384.30000	     2.65728e-16	
     9386.20000	     2.77107e-16	
     9388.10000	     2.96549e-16	
     9390.00000	     3.14747e-16	
     9391.90000	     3.10181e-16	
     9393.80000	     3.04939e-16	
     9395.70000	     2.96232e-16	
     9397.60000	     2.86571e-16	
     9399.50000	     2.76770e-16	
     9401.40000	     2.88084e-16	
     9403.30000	     2.95206e-16	
     9405.20000	     2.85553e-16	
     9407.10000	     2.78321e-16	
     9409.00000	     2.76988e-16	
     9410.90000	     2.85171e-16	
     9412.80000	     2.80576e-16	
     9414.70000	     2.87237e-16	
     9416.60000	     2.92763e-16	
     9418.50000	     2.99614e-16	
     9420.40000	     3.03183e-16	
     9422.30000	     2.84483e-16	
     9424.20000	     2.49184e-16	
     9426.10000	     2.28878e-16	
     9428.00000	     2.47205e-16	
     9429.90000	     2.88807e-16	
     9431.80000	     3.08284e-16	
     9433.70000	     2.88313e-16	
     9435.60000	     2.50855e-16	
     9437.50000	     2.17921e-16	
     9439.40000	     2.21537e-16	
     9441.30000	     2.29405e-16	
     9443.20000	     2.76817e-16	
     9445.10000	     2.85396e-16	
     9447.00000	     2.88492e-16	
     9448.90000	     2.92895e-16	
     9450.80000	     2.71638e-16	
     9452.70000	     2.55785e-16	
     9454.60000	     2.41869e-16	
     9456.50000	     2.35486e-16	
     9458.40000	     2.33287e-16	
     9460.30000	     2.42589e-16	
     9462.20000	     2.78229e-16	
     9464.10000	     2.79876e-16	
     9466.00000	     2.75867e-16	
     9467.90000	     2.77264e-16	
     9469.80000	     2.80633e-16	
     9471.70000	     2.81083e-16	
     9473.60000	     2.84746e-16	
     9475.50000	     2.86017e-16	
     9477.40000	     2.73299e-16	
     9479.30000	     2.60802e-16	
     9481.20000	     2.64301e-16	
     9483.10000	     2.92629e-16	
     9485.00000	     3.24169e-16	
     9486.90000	     3.32109e-16	
     9488.80000	     3.10036e-16	
     9490.70000	     2.82268e-16	
     9492.60000	     2.68807e-16	
     9494.50000	     2.61952e-16	
     9496.40000	     2.46091e-16	
     9498.30000	     2.34326e-16	
     9500.20000	     2.66186e-16	
     9502.10000	     3.04478e-16	
     9504.00000	     3.25971e-16	
     9505.90000	     3.35299e-16	
     9507.80000	     3.35630e-16	
     9509.70000	     3.32092e-16	
     9511.60000	     3.17326e-16	
     9513.50000	     2.89094e-16	
     9515.40000	     2.79316e-16	
     9517.30000	     2.76897e-16	
     9519.20000	     2.57030e-16	
     9521.10000	     2.62397e-16	
     9523.00000	     2.84769e-16	
     9524.90000	     2.90737e-16	
     9526.80000	     2.86453e-16	
     9528.70000	     3.04861e-16	
     9530.60000	     3.02014e-16	
     9532.50000	     2.92994e-16	
     9534.40000	     3.01142e-16	
     9536.30000	     3.12625e-16	
     9538.20000	     3.07632e-16	
     9540.10000	     2.87701e-16	
     9542.00000	     2.68538e-16	
     9543.90000	     2.86136e-16	
     9545.80000	     3.13417e-16	
     9547.70000	     3.22295e-16	
     9549.60000	     2.94207e-16	
     9551.50000	     2.81054e-16	
     9553.40000	     2.73945e-16	
     9555.30000	     2.89594e-16	
     9557.20000	     3.10765e-16	
     9559.10000	     3.01382e-16	
     9561.00000	     3.01963e-16	
     9562.90000	     2.91442e-16	
     9564.80000	     3.07678e-16	
     9566.70000	     3.17949e-16	
     9568.60000	     3.30033e-16	
     9570.50000	     3.25915e-16	
     9572.40000	     3.29503e-16	
     9574.30000	     3.37976e-16	
     9576.20000	     3.17783e-16	
     9578.10000	     2.99188e-16	
     9580.00000	     3.10518e-16	
     9581.90000	     3.25577e-16	
     9583.80000	     3.25313e-16	
     9585.70000	     2.98150e-16	
     9587.60000	     2.84386e-16	
     9589.50000	     2.89021e-16	
     9591.40000	     3.11812e-16	
     9593.30000	     3.17894e-16	
     9595.20000	     3.03432e-16	
     9597.10000	     3.11011e-16	
     9599.00000	     3.27928e-16	
     9600.90000	     3.25620e-16	
     9602.80000	     3.14252e-16	
     9604.70000	     3.20096e-16	
     9606.60000	     3.41388e-16	
     9608.50000	     3.40398e-16	
     9610.40000	     3.27303e-16	
     9612.30000	     3.19809e-16	
     9614.20000	     3.31438e-16	
     9616.10000	     3.22867e-16	
     9618.00000	     2.99090e-16	
     9619.90000	     3.02832e-16	
     9621.80000	     2.96732e-16	
     9623.70000	     3.13997e-16	
     9625.60000	     3.31600e-16	
     9627.50000	     3.34596e-16	
     9629.40000	     3.48922e-16	
     9631.30000	     3.20373e-16	
     9633.20000	     2.99058e-16	
     9635.10000	     2.87309e-16	
     9637.00000	     2.99615e-16	
     9638.90000	     3.09580e-16	
     9640.80000	     3.12641e-16	
     9642.70000	     3.11505e-16	
     9644.60000	     3.08618e-16	
     9646.50000	     3.14292e-16	
     9648.40000	     3.30213e-16	
     9650.30000	     3.33594e-16	
     9652.20000	     3.47211e-16	
     9654.10000	     3.42718e-16	
     9656.00000	     3.16600e-16	
     9657.90000	     3.16601e-16	
     9659.80000	     3.12497e-16	
     9661.70000	     3.13613e-16	
     9663.60000	     3.20411e-16	
     9665.50000	     3.31778e-16	
     9667.40000	     3.32197e-16	
     9669.30000	     3.32623e-16	
     9671.20000	     3.23624e-16	
     9673.10000	     3.27141e-16	
     9675.00000	     3.30895e-16	
     9676.90000	     3.28449e-16	
     9678.80000	     3.32997e-16	
     9680.70000	     3.41956e-16	
     9682.60000	     3.42702e-16	
     9684.50000	     3.50124e-16	
     9686.40000	     3.40929e-16	
     9688.30000	     3.39056e-16	
     9690.20000	     3.61392e-16	
     9692.10000	     3.66787e-16	
     9694.00000	     3.61468e-16	
     9695.90000	     3.54263e-16	
     9697.80000	     3.54226e-16	
     9699.70000	     3.35280e-16	
     9701.60000	     3.41916e-16	
     9703.50000	     3.59167e-16	
     9705.40000	     3.60614e-16	
     9707.30000	     3.63847e-16	
     9709.20000	     3.67878e-16	
     9711.10000	     3.75521e-16	
     9713.00000	     3.64630e-16	
     9714.90000	     3.63638e-16	
     9716.80000	     3.77239e-16	
     9718.70000	     3.80470e-16	
     9720.60000	     3.64068e-16	
     9722.50000	     3.54073e-16	
     9724.40000	     3.46247e-16	
     9726.30000	     3.40881e-16	
     9728.20000	     3.63808e-16	
     9730.10000	     3.61142e-16	
     9732.00000	     3.52864e-16	
     9733.90000	     3.44519e-16	
     9735.80000	     3.50090e-16	
     9737.70000	     3.38401e-16	
     9739.60000	     3.37334e-16	
     9741.50000	     3.29323e-16	
     9743.40000	     3.40049e-16	
     9745.30000	     3.50210e-16	
     9747.20000	     3.48665e-16	
     9749.10000	     3.52370e-16	
     9751.00000	     3.48484e-16	
     9752.90000	     3.54379e-16	
     9754.80000	     3.47110e-16	
     9756.70000	     3.53099e-16	
     9758.60000	     3.54340e-16	
     9760.50000	     3.43970e-16	
     9762.40000	     3.63878e-16	
     9764.30000	     3.60896e-16	
     9766.20000	     3.58841e-16	
     9768.10000	     3.56940e-16	
     9770.00000	     3.80481e-16	
     9771.90000	     3.69742e-16	
     9773.80000	     3.88409e-16	
     9775.70000	     3.77009e-16	
     9777.60000	     3.69986e-16	
     9779.50000	     3.51311e-16	
     9781.40000	     3.52802e-16	
     9783.30000	     3.53556e-16	
     9785.20000	     3.74161e-16	
     9787.10000	     3.95371e-16	
     9789.00000	     3.90613e-16	
     9790.90000	     3.87005e-16	
     9792.80000	     3.90134e-16	
     9794.70000	     3.96931e-16	
     9796.60000	     3.84000e-16	
     9798.50000	     3.89385e-16	
     9800.40000	     3.94127e-16	
     9802.30000	     3.75021e-16	
     9804.20000	     3.70815e-16	
     9806.10000	     3.81646e-16	
     9808.00000	     3.79487e-16	
     9809.90000	     3.71820e-16	
     9811.80000	     3.74649e-16	
     9813.70000	     3.82546e-16	
     9815.60000	     3.85555e-16	
     9817.50000	     3.88998e-16	
     9819.40000	     3.84610e-16	
     9821.30000	     3.88830e-16	
     9823.20000	     3.87884e-16	
     9825.10000	     3.89022e-16	
     9827.00000	     3.75368e-16	
     9828.90000	     3.73254e-16	
     9830.80000	     3.89117e-16	
     9832.70000	     3.82000e-16	
     9834.60000	     3.73084e-16	
     9836.50000	     3.80418e-16	
     9838.40000	     3.93463e-16	
     9840.30000	     4.00436e-16	
     9842.20000	     4.17794e-16	
     9844.10000	     4.06002e-16	
     9846.00000	     3.84406e-16	
     9847.90000	     3.99606e-16	
     9849.80000	     4.15842e-16	
     9851.70000	     4.16224e-16	
     9853.60000	     4.35800e-16	
     9855.50000	     5.13842e-16	
     9857.40000	     4.22333e-16	
     9859.30000	     3.94609e-16	
     9861.20000	     3.98023e-16	
     9863.10000	     3.99606e-16	
     9865.00000	     4.19206e-16	
     9866.90000	     3.98557e-16	
     9868.80000	     3.94593e-16	
     9870.70000	     4.20296e-16	
     9872.60000	     4.06007e-16	
     9874.50000	     4.15942e-16	
     9876.40000	     4.23098e-16	
     9878.30000	     4.47909e-16	
     9880.20000	     4.30265e-16	
     9882.10000	     4.48089e-16	
     9884.00000	     4.43561e-16	
     9885.90000	     4.16450e-16	
     9887.80000	     4.00747e-16	
     9889.70000	     4.20675e-16	
     9891.60000	     3.95348e-16	
     9893.50000	     4.14046e-16	
     9895.40000	     4.18405e-16	
     9897.30000	     4.25060e-16	
     9899.20000	     4.13228e-16	
     9901.10000	     4.10784e-16	
     9903.00000	     4.03584e-16	
     9904.90000	     4.01368e-16	
     9906.80000	     3.95501e-16	
     9908.70000	     3.77804e-16	
     9910.60000	     3.89908e-16	
     9912.50000	     3.67882e-16	
     9914.40000	     3.75638e-16	
     9916.30000	     3.80542e-16	
     9918.20000	     3.78797e-16	
     9920.10000	     3.89358e-16	
     9922.00000	     4.07951e-16	
     9923.90000	     4.05907e-16	
     9925.80000	     4.06909e-16	
     9927.70000	     4.13700e-16	
     9929.60000	     4.02980e-16	
     9931.50000	     3.93093e-16	
     9933.40000	     4.05890e-16	
     9935.30000	     4.18224e-16	
     9937.20000	     4.01783e-16	
     9939.10000	     4.34754e-16	
#time:0.025535
