# Keck LRIS spectra of late-M, L and T dwarfs
# spty = L5  (Spectral type)
#
#    WAVELENGTH	#            FLUX	
#    (ANGSTROM)	#   (ERG/CM2/S/A)	
###############	#################	
     3800.00000	      1.67140e-17	
     3802.42621	      7.19496e-18	
     3804.85243	      1.25244e-17	
     3807.27864	      7.94060e-18	
     3809.70485	      9.55058e-18	
     3812.13107	      4.97167e-18	
     3814.55728	     -4.73131e-18	
     3816.98349	     -9.10833e-18	
     3819.40970	      1.18743e-17	
     3821.83592	      1.88432e-17	
     3824.26213	      1.40877e-17	
     3826.68834	      9.28755e-18	
     3829.11456	      9.85678e-18	
     3831.54077	      1.29471e-17	
     3833.96698	     -2.95950e-18	
     3836.39320	     -2.59367e-18	
     3838.81941	     -4.32254e-19	
     3841.24562	     -2.29779e-18	
     3843.67184	     -1.29459e-18	
     3846.09805	      2.69416e-18	
     3848.52426	     -2.88600e-18	
     3850.95048	      2.43628e-18	
     3853.37669	      1.33049e-17	
     3855.80290	      8.74476e-18	
     3858.22911	      1.10376e-18	
     3860.65533	      1.50112e-17	
     3863.08154	      1.94192e-17	
     3865.50775	      1.37403e-17	
     3867.93397	      1.21858e-17	
     3870.36018	      1.27966e-17	
     3872.78639	      1.90372e-17	
     3875.21261	      5.13797e-18	
     3877.63882	      9.81843e-18	
     3880.06503	      1.31949e-17	
     3882.49125	     -4.30595e-19	
     3884.91746	     -1.83595e-18	
     3887.34367	     -3.03098e-19	
     3889.76988	      4.24007e-18	
     3892.19610	     -9.86292e-19	
     3894.62231	      7.27176e-19	
     3897.04852	     -1.81230e-19	
     3899.47474	     -3.13408e-18	
     3901.90095	     -4.70477e-18	
     3904.32716	     -1.51002e-18	
     3906.75338	      2.63245e-18	
     3909.17959	      6.80356e-18	
     3911.60580	     -6.07709e-18	
     3914.03202	      3.68215e-18	
     3916.45823	      8.99326e-18	
     3918.88444	      1.06107e-17	
     3921.31066	      9.85123e-18	
     3923.73687	     -2.96338e-18	
     3926.16308	     -7.73976e-18	
     3928.58929	     -6.91621e-18	
     3931.01551	     -3.29820e-18	
     3933.44172	      4.04335e-18	
     3935.86793	      5.46816e-18	
     3938.29415	      1.33256e-17	
     3940.72036	      1.24749e-17	
     3943.14657	      2.15787e-18	
     3945.57279	      2.81600e-18	
     3947.99900	      2.01906e-17	
     3950.42521	      1.00748e-17	
     3952.85143	      3.37235e-18	
     3955.27764	      1.38380e-18	
     3957.70385	     -3.37737e-19	
     3960.13007	     -3.87739e-18	
     3962.55628	      3.03836e-18	
     3964.98249	      6.95918e-18	
     3967.40870	      6.68848e-18	
     3969.83492	      3.52687e-18	
     3972.26113	     -6.04785e-18	
     3974.68734	      4.42257e-18	
     3977.11356	      6.16824e-18	
     3979.53977	      7.02028e-18	
     3981.96598	      6.18611e-18	
     3984.39220	      1.77405e-18	
     3986.81841	      2.23181e-18	
     3989.24462	      1.00476e-17	
     3991.67084	      6.39969e-18	
     3994.09705	      1.00759e-17	
     3996.52326	      5.20067e-18	
     3998.94947	      1.51717e-18	
     4001.37569	      9.09426e-18	
     4003.80190	      4.77339e-18	
     4006.22811	      2.46948e-19	
     4008.65433	     -2.42157e-18	
     4011.08054	     -1.86660e-18	
     4013.50675	      3.53397e-18	
     4015.93297	     -4.79466e-18	
     4018.35918	      1.69815e-18	
     4020.78539	      1.47146e-17	
     4023.21161	      3.14016e-18	
     4025.63782	     -5.11328e-18	
     4028.06403	      1.79061e-19	
     4030.49025	      6.51221e-18	
     4032.91646	      5.40331e-18	
     4035.34267	      6.07047e-18	
     4037.76888	     -8.43643e-18	
     4040.19510	     -6.39658e-18	
     4042.62131	      1.25825e-17	
     4045.04752	      1.07351e-17	
     4047.47374	      2.48625e-18	
     4049.89995	      8.21962e-19	
     4052.32616	      6.09787e-18	
     4054.75238	      3.87282e-18	
     4057.17859	      2.69833e-18	
     4059.60480	     -7.60008e-18	
     4062.03102	      1.02616e-17	
     4064.45723	      6.73372e-20	
     4066.88344	      1.24329e-18	
     4069.30965	     -5.44568e-18	
     4071.73587	      1.47402e-18	
     4074.16208	     -3.36568e-18	
     4076.58829	      1.10434e-18	
     4079.01451	      3.95817e-18	
     4081.44072	      4.55973e-18	
     4083.86693	      8.80770e-18	
     4086.29315	     -3.26341e-18	
     4088.71936	     -4.51538e-19	
     4091.14557	     -1.02294e-18	
     4093.57179	      3.75065e-18	
     4095.99800	      9.35532e-18	
     4098.42421	      3.35773e-18	
     4100.85043	      6.15113e-18	
     4103.27664	      1.19297e-17	
     4105.70285	      1.17283e-18	
     4108.12906	     -3.71379e-18	
     4110.55528	      1.48609e-18	
     4112.98149	     -1.03538e-18	
     4115.40770	     -1.74411e-18	
     4117.83392	      1.37675e-17	
     4120.26013	      1.00862e-17	
     4122.68634	      2.82337e-18	
     4125.11256	      6.58638e-18	
     4127.53877	      4.39128e-18	
     4129.96498	      2.73897e-18	
     4132.39120	      5.46492e-18	
     4134.81741	      3.56545e-18	
     4137.24362	      4.12463e-18	
     4139.66983	      5.33768e-18	
     4142.09605	      4.31509e-18	
     4144.52226	      1.31036e-17	
     4146.94847	      2.30075e-17	
     4149.37469	      1.05286e-17	
     4151.80090	      4.11401e-18	
     4154.22711	      8.25517e-20	
     4156.65333	     -4.78270e-18	
     4159.07954	     -5.88364e-18	
     4161.50575	      1.03625e-18	
     4163.93197	      4.67325e-18	
     4166.35818	      5.85293e-18	
     4168.78439	      1.60245e-17	
     4171.21061	      5.12816e-18	
     4173.63682	     -7.33423e-19	
     4176.06303	     -2.72734e-19	
     4178.48924	      6.43200e-18	
     4180.91546	      6.18842e-18	
     4183.34167	      8.85768e-20	
     4185.76788	      7.11970e-18	
     4188.19410	     -1.84635e-18	
     4190.62031	     -3.24437e-18	
     4193.04652	     -1.55177e-18	
     4195.47274	      1.34351e-17	
     4197.89895	     -2.10436e-18	
     4200.32516	     -4.41745e-18	
     4202.75138	      4.32063e-18	
     4205.17759	      6.36572e-19	
     4207.60380	      7.05187e-18	
     4210.03002	      3.19678e-18	
     4212.45623	      3.99651e-18	
     4214.88244	      1.14000e-17	
     4217.30865	      7.17872e-18	
     4219.73487	     -4.48672e-18	
     4222.16108	     -1.20794e-17	
     4224.58729	     -9.91423e-18	
     4227.01351	      2.08015e-18	
     4229.43972	      6.74287e-18	
     4231.86593	      4.84256e-18	
     4234.29215	     -2.47578e-18	
     4236.71836	      3.13869e-18	
     4239.14457	      4.60763e-18	
     4241.57079	      6.22875e-18	
     4243.99700	      6.41959e-18	
     4246.42321	      7.68910e-19	
     4248.84942	      3.75922e-19	
     4251.27564	      1.47830e-17	
     4253.70185	      1.66165e-17	
     4256.12806	      7.35344e-18	
     4258.55428	      6.59881e-18	
     4260.98049	      7.39014e-18	
     4263.40670	      9.72303e-18	
     4265.83292	      5.69168e-18	
     4268.25913	      9.09983e-18	
     4270.68534	      6.85524e-18	
     4273.11156	      5.30791e-18	
     4275.53777	     -5.86215e-19	
     4277.96398	     -2.63648e-18	
     4280.39020	      3.59309e-18	
     4282.81641	     -1.50649e-18	
     4285.24262	     -1.53931e-18	
     4287.66883	     -9.08193e-19	
     4290.09505	     -7.07037e-18	
     4292.52126	      2.11270e-18	
     4294.94747	      7.81221e-18	
     4297.37369	      3.18775e-18	
     4299.79990	     -3.35779e-20	
     4302.22611	      1.14895e-18	
     4304.65233	      8.58651e-19	
     4307.07854	      1.73947e-19	
     4309.50475	     -2.61715e-18	
     4311.93097	     -2.61875e-19	
     4314.35718	      5.76580e-18	
     4316.78339	      7.28977e-18	
     4319.20960	      9.00744e-18	
     4321.63582	      5.96320e-18	
     4324.06203	      1.10055e-18	
     4326.48824	      5.62640e-20	
     4328.91446	      3.31064e-18	
     4331.34067	     -1.08502e-18	
     4333.76688	      1.58681e-18	
     4336.19310	      6.21833e-18	
     4338.61931	      3.53935e-18	
     4341.04552	      7.88754e-18	
     4343.47174	      5.55632e-18	
     4345.89795	      6.44898e-18	
     4348.32416	     -3.71749e-18	
     4350.75038	     -1.77963e-18	
     4353.17659	      1.02264e-17	
     4355.60280	      2.30302e-18	
     4358.02901	     -5.71741e-19	
     4360.45523	      6.86156e-18	
     4362.88144	      5.27721e-18	
     4365.30765	      6.03761e-18	
     4367.73387	      5.55024e-18	
     4370.16008	      2.39003e-18	
     4372.58629	      2.64961e-18	
     4375.01251	      4.65064e-18	
     4377.43872	      4.59651e-18	
     4379.86493	      1.13948e-18	
     4382.29115	      1.94122e-18	
     4384.71736	      2.21120e-18	
     4387.14357	      2.18791e-18	
     4389.56978	      8.10291e-18	
     4391.99600	      5.72410e-18	
     4394.42221	      2.20529e-18	
     4396.84842	      8.89259e-18	
     4399.27464	      4.36283e-18	
     4401.70085	      1.01213e-17	
     4404.12706	      5.22327e-18	
     4406.55328	      4.61514e-18	
     4408.97949	      7.73190e-18	
     4411.40570	      1.22399e-17	
     4413.83192	      9.70559e-18	
     4416.25813	      5.36695e-18	
     4418.68434	      1.17846e-17	
     4421.11056	      1.22764e-17	
     4423.53677	      9.68151e-18	
     4425.96298	      2.55507e-18	
     4428.38919	      1.52447e-20	
     4430.81541	      1.80504e-18	
     4433.24162	      7.99378e-18	
     4435.66783	      4.58625e-18	
     4438.09405	      6.94283e-18	
     4440.52026	      9.26452e-18	
     4442.94647	      4.21734e-18	
     4445.37269	      7.43303e-18	
     4447.79890	      9.29695e-18	
     4450.22511	      1.22450e-17	
     4452.65133	      1.34291e-17	
     4455.07754	      6.90068e-18	
     4457.50375	      6.61124e-18	
     4459.92996	      1.11965e-17	
     4462.35618	      1.29433e-17	
     4464.78239	      9.30108e-18	
     4467.20860	      1.16367e-17	
     4469.63482	      1.14065e-17	
     4472.06103	      1.13139e-17	
     4474.48724	      1.77685e-17	
     4476.91346	      1.06800e-17	
     4479.33967	      9.65142e-18	
     4481.76588	      6.95487e-18	
     4484.19210	      4.91455e-18	
     4486.61831	      1.15493e-17	
     4489.04452	      1.31881e-17	
     4491.47074	      1.23431e-17	
     4493.89695	      8.83537e-18	
     4496.32316	      9.30383e-18	
     4498.74937	      1.15446e-17	
     4501.17559	      1.01991e-17	
     4503.60180	      1.38157e-17	
     4506.02801	      8.59360e-18	
     4508.45423	      5.61497e-18	
     4510.88044	      1.53520e-17	
     4513.30665	      8.55210e-18	
     4515.73287	      1.02370e-17	
     4518.15908	      1.21440e-17	
     4520.58529	      4.00318e-18	
     4523.01151	      1.03461e-17	
     4525.43772	      1.13581e-17	
     4527.86393	      1.18077e-17	
     4530.29015	      8.92257e-18	
     4532.71636	      6.07956e-18	
     4535.14257	      6.70765e-18	
     4537.56878	      7.65164e-18	
     4539.99500	      3.55231e-18	
     4542.42121	      8.88786e-18	
     4544.84742	      1.12002e-17	
     4547.27364	      1.15681e-17	
     4549.69985	      1.55607e-17	
     4552.12606	      1.20506e-17	
     4554.55228	      3.08152e-18	
     4556.97849	      1.08801e-17	
     4559.40470	      1.16382e-17	
     4561.83092	      1.17167e-17	
     4564.25713	      1.15503e-17	
     4566.68334	      6.56406e-18	
     4569.10955	      1.04637e-17	
     4571.53577	      1.23575e-17	
     4573.96198	      9.37250e-18	
     4576.38819	      1.23235e-17	
     4578.81441	      1.21420e-17	
     4581.24062	      8.53628e-18	
     4583.66683	      1.44050e-17	
     4586.09305	      1.52415e-17	
     4588.51926	      1.00382e-17	
     4590.94547	      1.45352e-17	
     4593.37169	      6.17721e-18	
     4595.79790	      8.88585e-18	
     4598.22411	      1.59414e-17	
     4600.65033	      1.02122e-17	
     4603.07654	      9.31172e-18	
     4605.50275	      1.39233e-17	
     4607.92896	      1.22862e-17	
     4610.35518	      7.49576e-18	
     4612.78139	      1.03404e-17	
     4615.20760	      1.10136e-17	
     4617.63382	      1.18605e-17	
     4620.06003	      1.43484e-17	
     4622.48624	      1.48621e-17	
     4624.91246	      1.81617e-17	
     4627.33867	      1.93017e-17	
     4629.76488	      1.53517e-17	
     4632.19110	      1.13845e-17	
     4634.61731	      1.40317e-17	
     4637.04352	      1.21343e-17	
     4639.46973	      1.18421e-17	
     4641.89595	      1.58891e-17	
     4644.32216	      1.70377e-17	
     4646.74837	      1.84106e-17	
     4649.17459	      1.38994e-17	
     4651.60080	      1.09141e-17	
     4654.02701	      8.17704e-18	
     4656.45323	      1.59772e-17	
     4658.87944	      1.95189e-17	
     4661.30565	      1.46421e-17	
     4663.73187	      1.54655e-17	
     4666.15808	      2.18796e-17	
     4668.58429	      1.86130e-17	
     4671.01051	      1.73702e-17	
     4673.43672	      1.78457e-17	
     4675.86293	      1.74659e-17	
     4678.28914	      1.73761e-17	
     4680.71536	      1.96094e-17	
     4683.14157	      2.03752e-17	
     4685.56778	      1.97503e-17	
     4687.99400	      1.57511e-17	
     4690.42021	      1.50819e-17	
     4692.84642	      2.14524e-17	
     4695.27264	      2.03609e-17	
     4697.69885	      1.76261e-17	
     4700.12506	      1.91221e-17	
     4702.55128	      2.02398e-17	
     4704.97749	      1.68899e-17	
     4707.40370	      1.77775e-17	
     4709.82991	      2.16585e-17	
     4712.25613	      1.81829e-17	
     4714.68234	      1.96798e-17	
     4717.10855	      1.59442e-17	
     4719.53477	      2.05403e-17	
     4721.96098	      2.32535e-17	
     4724.38719	      2.31287e-17	
     4726.81341	      2.54816e-17	
     4729.23962	      1.85804e-17	
     4731.66583	      1.69361e-17	
     4734.09205	      1.81594e-17	
     4736.51826	      2.24047e-17	
     4738.94447	      1.83546e-17	
     4741.37069	      1.85089e-17	
     4743.79690	      2.12269e-17	
     4746.22311	      1.86902e-17	
     4748.64932	      2.15273e-17	
     4751.07554	      2.51771e-17	
     4753.50175	      1.65167e-17	
     4755.92796	      1.30661e-17	
     4758.35418	      1.72867e-17	
     4760.78039	      1.84582e-17	
     4763.20660	      1.60632e-17	
     4765.63282	      1.15264e-17	
     4768.05903	      2.21288e-17	
     4770.48524	      1.54261e-17	
     4772.91146	      7.05775e-18	
     4775.33767	      1.07112e-17	
     4777.76388	      1.28860e-17	
     4780.19010	      1.46040e-17	
     4782.61631	      1.12005e-17	
     4785.04252	      1.36976e-17	
     4787.46873	      9.03478e-18	
     4789.89495	      9.71097e-18	
     4792.32116	      7.24448e-18	
     4794.74737	      9.92964e-18	
     4797.17359	      1.27259e-17	
     4799.59980	      1.24302e-17	
     4802.02601	      1.31147e-17	
     4804.45223	      1.64859e-17	
     4806.87844	      2.31890e-17	
     4809.30465	      2.03624e-17	
     4811.73087	      2.17333e-17	
     4814.15708	      2.23912e-17	
     4816.58329	      1.63204e-17	
     4819.00950	      2.61401e-17	
     4821.43572	      2.31147e-17	
     4823.86193	      1.62324e-17	
     4826.28814	      1.93152e-17	
     4828.71436	      2.19281e-17	
     4831.14057	      2.01205e-17	
     4833.56678	      2.41731e-17	
     4835.99300	      2.35042e-17	
     4838.41921	      2.22316e-17	
     4840.84542	      2.46364e-17	
     4843.27164	      1.99845e-17	
     4845.69785	      2.31202e-17	
     4848.12406	      2.31939e-17	
     4850.55028	      2.25501e-17	
     4852.97649	      2.65920e-17	
     4855.40270	      2.27300e-17	
     4857.82891	      2.29727e-17	
     4860.25513	      2.47562e-17	
     4862.68134	      2.32925e-17	
     4865.10755	      2.22213e-17	
     4867.53377	      2.37005e-17	
     4869.95998	      2.17023e-17	
     4872.38619	      2.98608e-17	
     4874.81241	      2.53547e-17	
     4877.23862	      2.02304e-17	
     4879.66483	      2.23307e-17	
     4882.09105	      2.54585e-17	
     4884.51726	      2.81339e-17	
     4886.94347	      2.93770e-17	
     4889.36968	      2.73767e-17	
     4891.79590	      3.05768e-17	
     4894.22211	      2.83089e-17	
     4896.64832	      2.36805e-17	
     4899.07454	      2.58716e-17	
     4901.50075	      2.43021e-17	
     4903.92696	      2.73756e-17	
     4906.35318	      2.93197e-17	
     4908.77939	      2.54855e-17	
     4911.20560	      2.61111e-17	
     4913.63182	      3.01420e-17	
     4916.05803	      2.78758e-17	
     4918.48424	      2.80547e-17	
     4920.91046	      2.54160e-17	
     4923.33667	      2.73902e-17	
     4925.76288	      3.04920e-17	
     4928.18909	      2.76582e-17	
     4930.61531	      2.67942e-17	
     4933.04152	      2.79696e-17	
     4935.46773	      2.74895e-17	
     4937.89395	      2.88163e-17	
     4940.32016	      3.05407e-17	
     4942.74637	      2.77909e-17	
     4945.17259	      2.75573e-17	
     4947.59880	      2.77360e-17	
     4950.02501	      2.96315e-17	
     4952.45123	      3.52398e-17	
     4954.87744	      3.61346e-17	
     4957.30365	      3.18577e-17	
     4959.72986	      3.04304e-17	
     4962.15608	      2.99720e-17	
     4964.58229	      3.00371e-17	
     4967.00850	      3.42479e-17	
     4969.43472	      3.21583e-17	
     4971.86093	      3.22428e-17	
     4974.28714	      3.48628e-17	
     4976.71336	      3.26035e-17	
     4979.13957	      3.27570e-17	
     4981.56578	      3.37365e-17	
     4983.99200	      2.90967e-17	
     4986.41821	      3.23705e-17	
     4988.84442	      3.27351e-17	
     4991.27064	      2.99128e-17	
     4993.69685	      3.25687e-17	
     4996.12306	      3.64073e-17	
     4998.54927	      3.77040e-17	
     5000.97549	      3.21256e-17	
     5003.40170	      2.95913e-17	
     5005.82791	      3.48149e-17	
     5008.25413	      3.64347e-17	
     5010.68034	      3.16677e-17	
     5013.10655	      3.20051e-17	
     5015.53277	      3.44253e-17	
     5017.95898	      3.45694e-17	
     5020.38519	      3.60306e-17	
     5022.81141	      3.36613e-17	
     5025.23762	      3.30431e-17	
     5027.66383	      3.23772e-17	
     5030.09005	      3.28435e-17	
     5032.51626	      3.40751e-17	
     5034.94247	      3.02585e-17	
     5037.36868	      2.98892e-17	
     5039.79490	      3.01803e-17	
     5042.22111	      2.91167e-17	
     5044.64732	      2.79040e-17	
     5047.07354	      3.06242e-17	
     5049.49975	      3.03123e-17	
     5051.92596	      2.59297e-17	
     5054.35218	      2.78787e-17	
     5056.77839	      2.77353e-17	
     5059.20460	      2.37993e-17	
     5061.63082	      2.56983e-17	
     5064.05703	      2.53584e-17	
     5066.48324	      2.44477e-17	
     5068.90945	      2.46299e-17	
     5071.33567	      2.38926e-17	
     5073.76188	      2.45461e-17	
     5076.18809	      2.35092e-17	
     5078.61431	      2.31165e-17	
     5081.04052	      2.53159e-17	
     5083.46673	      2.17791e-17	
     5085.89295	      2.15931e-17	
     5088.31916	      2.35133e-17	
     5090.74537	      2.20766e-17	
     5093.17159	      2.03449e-17	
     5095.59780	      1.69238e-17	
     5098.02401	      2.15235e-17	
     5100.45023	      1.86992e-17	
     5102.87644	      1.77625e-17	
     5105.30265	      1.76776e-17	
     5107.72886	      1.38405e-17	
     5110.15508	      1.17727e-17	
     5112.58129	      1.52301e-17	
     5115.00750	      1.75473e-17	
     5117.43372	      1.26212e-17	
     5119.85993	      1.32121e-17	
     5122.28614	      1.27393e-17	
     5124.71236	      1.17428e-17	
     5127.13857	      1.24686e-17	
     5129.56478	      1.09582e-17	
     5131.99100	      1.02309e-17	
     5134.41721	      1.39996e-17	
     5136.84342	      1.53718e-17	
     5139.26963	      1.03387e-17	
     5141.69585	      1.39115e-17	
     5144.12206	      1.48990e-17	
     5146.54827	      1.24943e-17	
     5148.97449	      1.30182e-17	
     5151.40070	      1.23532e-17	
     5153.82691	      1.27550e-17	
     5156.25313	      1.40010e-17	
     5158.67934	      1.26389e-17	
     5161.10555	      1.21819e-17	
     5163.53177	      1.37619e-17	
     5165.95798	      1.33414e-17	
     5168.38419	      1.14555e-17	
     5170.81041	      1.29566e-17	
     5173.23662	      9.70689e-18	
     5175.66283	      9.04436e-18	
     5178.08904	      6.38198e-18	
     5180.51526	      9.62112e-18	
     5182.94147	      1.09363e-17	
     5185.36768	      1.29582e-17	
     5187.79390	      1.86263e-17	
     5190.22011	      2.25782e-17	
     5192.64632	      2.22106e-17	
     5195.07254	      1.47243e-17	
     5197.49875	      1.58117e-17	
     5199.92496	      1.65583e-17	
     5202.35118	      1.10713e-17	
     5204.77739	      7.02473e-18	
     5207.20360	      9.51221e-18	
     5209.62981	      1.57736e-17	
     5212.05603	      1.39362e-17	
     5214.48224	      1.51447e-17	
     5216.90845	      1.81460e-17	
     5219.33467	      1.84866e-17	
     5221.76088	      1.89057e-17	
     5224.18709	      1.95965e-17	
     5226.61331	      2.00224e-17	
     5229.03952	      1.93421e-17	
     5231.46573	      1.89374e-17	
     5233.89195	      1.92516e-17	
     5236.31816	      2.31705e-17	
     5238.74437	      2.09292e-17	
     5241.17059	      2.01198e-17	
     5243.59680	      1.91301e-17	
     5246.02301	      1.95237e-17	
     5248.44922	      2.09194e-17	
     5250.87544	      1.98072e-17	
     5253.30165	      1.98506e-17	
     5255.72786	      2.19309e-17	
     5258.15408	      1.77260e-17	
     5260.58029	      2.04283e-17	
     5263.00650	      1.74941e-17	
     5265.43272	      1.59441e-17	
     5267.85893	      1.66788e-17	
     5270.28514	      1.79261e-17	
     5272.71136	      1.72637e-17	
     5275.13757	      1.97605e-17	
     5277.56378	      2.01230e-17	
     5279.98999	      2.07426e-17	
     5282.41621	      1.98546e-17	
     5284.84242	      1.87999e-17	
     5287.26863	      1.78597e-17	
     5289.69485	      1.91894e-17	
     5292.12106	      2.02134e-17	
     5294.54727	      1.53870e-17	
     5296.97349	      1.71237e-17	
     5299.39970	      1.61561e-17	
     5301.82591	      2.05476e-17	
     5304.25213	      2.19263e-17	
     5306.67834	      1.64493e-17	
     5309.10455	      1.75401e-17	
     5311.53077	      1.58685e-17	
     5313.95698	      1.45119e-17	
     5316.38319	      1.59055e-17	
     5318.80940	      2.13126e-17	
     5321.23562	      1.79885e-17	
     5323.66183	      1.67528e-17	
     5326.08804	      1.88681e-17	
     5328.51426	      1.52332e-17	
     5330.94047	      1.44735e-17	
     5333.36668	      1.59371e-17	
     5335.79290	      1.55110e-17	
     5338.21911	      1.60863e-17	
     5340.64532	      1.88185e-17	
     5343.07154	      1.48601e-17	
     5345.49775	      1.32715e-17	
     5347.92396	      1.28933e-17	
     5350.35018	      1.52884e-17	
     5352.77639	      1.76306e-17	
     5355.20260	      1.71354e-17	
     5357.62881	      1.62411e-17	
     5360.05503	      1.60279e-17	
     5362.48124	      1.94553e-17	
     5364.90745	      1.69421e-17	
     5367.33367	      1.67693e-17	
     5369.75988	      1.51576e-17	
     5372.18609	      1.48903e-17	
     5374.61231	      1.48243e-17	
     5377.03852	      1.12713e-17	
     5379.46473	      1.22530e-17	
     5381.89095	      1.85352e-17	
     5384.31716	      1.68409e-17	
     5386.74337	      1.45178e-17	
     5389.16958	      1.64061e-17	
     5391.59580	      1.63161e-17	
     5394.02201	      1.57924e-17	
     5396.44822	      1.30498e-17	
     5398.87444	      1.30434e-17	
     5401.30065	      1.23487e-17	
     5403.72686	      1.20728e-17	
     5406.15308	      1.29709e-17	
     5408.57929	      1.44831e-17	
     5411.00550	      1.42826e-17	
     5413.43172	      1.35709e-17	
     5415.85793	      1.12478e-17	
     5418.28414	      1.40849e-17	
     5420.71036	      1.74162e-17	
     5423.13657	      1.66080e-17	
     5425.56278	      1.54457e-17	
     5427.98899	      1.39864e-17	
     5430.41521	      1.22774e-17	
     5432.84142	      1.36059e-17	
     5435.26763	      1.31556e-17	
     5437.69385	      1.05742e-17	
     5440.12006	      1.33572e-17	
     5442.54627	      1.60179e-17	
     5444.97249	      1.25004e-17	
     5447.39870	      1.22282e-17	
     5449.82491	      1.37073e-17	
     5452.25113	      1.24983e-17	
     5454.67734	      9.78670e-18	
     5457.10355	      1.27444e-17	
     5459.52976	      1.21747e-17	
     5461.95598	      1.35231e-17	
     5464.38219	      1.21957e-17	
     5466.80840	      1.15465e-17	
     5469.23462	      1.31040e-17	
     5471.66083	      1.13910e-17	
     5474.08704	      1.13656e-17	
     5476.51326	      1.31188e-17	
     5478.93947	      1.27839e-17	
     5481.36568	      1.00834e-17	
     5483.79190	      1.19246e-17	
     5486.21811	      1.37290e-17	
     5488.64432	      1.19858e-17	
     5491.07054	      1.05866e-17	
     5493.49675	      1.25184e-17	
     5495.92296	      1.11677e-17	
     5498.34917	      1.22435e-17	
     5500.77539	      1.26524e-17	
     5503.20160	      1.07284e-17	
     5505.62781	      1.13277e-17	
     5508.05403	      9.76373e-18	
     5510.48024	      1.01793e-17	
     5512.90645	      1.12990e-17	
     5515.33267	      9.55792e-18	
     5517.75888	      7.22070e-18	
     5520.18509	      8.90325e-18	
     5522.61131	      1.24558e-17	
     5525.03752	      1.13920e-17	
     5527.46373	      8.35247e-18	
     5529.88994	      8.50589e-18	
     5532.31616	      9.53643e-18	
     5534.74237	      9.23650e-18	
     5537.16858	      1.03565e-17	
     5539.59480	      1.19166e-17	
     5542.02101	      1.14866e-17	
     5544.44722	      9.27266e-18	
     5546.87344	      9.78854e-18	
     5549.29965	      1.08809e-17	
     5551.72586	      7.16551e-18	
     5554.15208	      9.14568e-18	
     5556.57829	      9.96205e-18	
     5559.00450	      1.02366e-17	
     5561.43072	      8.60355e-18	
     5563.85693	      9.62094e-18	
     5566.28314	      7.44004e-18	
     5568.70935	      3.75359e-18	
     5571.13557	      1.27686e-17	
     5573.56178	      2.16338e-17	
     5575.98799	      1.36799e-17	
     5578.41421	      1.32174e-17	
     5580.84042	      1.17939e-17	
     5583.26663	      7.43469e-18	
     5585.69285	      1.24336e-17	
     5588.11906	      7.62536e-18	
     5590.54527	      1.12921e-17	
     5592.97149	      9.57520e-18	
     5595.39770	      7.49005e-18	
     5597.82391	      6.29902e-18	
     5600.25013	      6.82926e-18	
     5602.67634	      8.43181e-18	
     5605.10255	      9.90199e-18	
     5607.52876	      8.29520e-18	
     5609.95498	      5.46911e-18	
     5612.38119	      9.03211e-18	
     5614.80740	      9.93242e-18	
     5617.23362	      6.18829e-18	
     5619.65983	      8.61100e-18	
     5622.08604	      6.95158e-18	
     5624.51226	      7.26660e-18	
     5626.93847	      7.82605e-18	
     5629.36468	      7.59677e-18	
     5631.79090	      7.50149e-18	
     5634.21711	      6.29557e-18	
     5636.64332	      6.30366e-18	
     5639.06953	      6.84518e-18	
     5641.49575	      6.03306e-18	
     5643.92196	      6.90651e-18	
     5646.34817	      9.05627e-18	
     5648.77439	      8.87814e-18	
     5651.20060	      7.86846e-18	
     5653.62681	      7.95345e-18	
     5656.05303	      7.73404e-18	
     5658.47924	      5.19751e-18	
     5660.90545	      3.18738e-18	
     5663.33167	      6.71253e-18	
     5665.75788	      6.73972e-18	
     5668.18409	      4.61669e-18	
     5670.61031	      5.00244e-18	
     5673.03652	      8.09172e-18	
     5675.46273	      4.94991e-18	
     5677.88894	      4.50368e-18	
     5680.31516	      5.00972e-18	
     5682.74137	      5.41202e-18	
     5685.16758	      6.90737e-18	
     5687.59380	      5.02931e-18	
     5690.02001	      1.80252e-18	
     5692.44622	      2.66291e-18	
     5694.87244	      2.61106e-18	
     5697.29865	      4.91404e-18	
     5699.72486	      2.87166e-18	
     5702.15108	      5.56378e-18	
     5704.57729	      2.19082e-18	
     5707.00350	      4.08828e-18	
     5709.42971	      4.94179e-18	
     5711.85593	      2.54659e-18	
     5714.28214	      1.10185e-18	
     5716.70835	      6.45210e-18	
     5719.13457	      7.39714e-19	
     5721.56078	      9.02503e-19	
     5723.98699	      2.24592e-18	
     5726.41321	      4.13685e-18	
     5728.83942	      5.08777e-19	
     5731.26563	      3.78350e-18	
     5733.69185	      4.30736e-18	
     5736.11806	      4.63380e-18	
     5738.54427	      7.85727e-18	
     5740.97049	      7.31483e-18	
     5743.39670	      6.10752e-18	
     5745.82291	      4.22450e-18	
     5748.24912	      2.23263e-18	
     5750.67534	      1.62668e-18	
     5753.10155	      7.68556e-19	
     5755.52776	      2.29652e-18	
     5757.95398	      4.36306e-18	
     5760.38019	      4.54424e-18	
     5762.80640	      3.10390e-18	
     5765.23262	      2.87001e-18	
     5767.65883	      3.44278e-18	
     5770.08504	      1.80956e-18	
     5772.51126	      2.58821e-18	
     5774.93747	      3.04125e-18	
     5777.36368	      1.39629e-18	
     5779.78989	      2.37202e-18	
     5782.21611	      2.32277e-18	
     5784.64232	      4.61164e-18	
     5787.06853	      1.87253e-18	
     5789.49475	      5.45533e-18	
     5791.92096	      3.85468e-18	
     5794.34717	      2.29702e-18	
     5796.77339	      5.28649e-18	
     5799.19960	      3.45935e-18	
     5801.62581	      2.05707e-18	
     5804.05203	      4.85278e-18	
     5806.47824	      3.11348e-18	
     5808.90445	      2.54148e-18	
     5811.33067	      2.95901e-18	
     5813.75688	     -5.36120e-20	
     5816.18309	      2.59998e-18	
     5818.60930	      5.01768e-18	
     5821.03552	      3.79847e-18	
     5823.46173	      1.87335e-18	
     5825.88794	      3.61191e-19	
     5828.31416	     -9.33639e-21	
     5830.74037	      7.50000e-19	
     5833.16658	     -4.26741e-19	
     5835.59280	      7.26153e-19	
     5838.01901	      9.74374e-19	
     5840.44522	      1.00048e-18	
     5842.87144	      1.55318e-18	
     5845.29765	      1.87890e-18	
     5847.72386	      3.21510e-18	
     5850.15008	      2.35330e-18	
     5852.57629	      1.81364e-18	
     5855.00250	      9.32594e-19	
     5857.42871	      1.02345e-18	
     5859.85493	      2.06800e-18	
     5862.28114	      7.77542e-19	
     5864.70735	      2.45955e-18	
     5867.13357	     -4.64225e-19	
     5869.55978	     -7.19887e-19	
     5871.98599	      3.21816e-18	
     5874.41221	      1.96372e-18	
     5876.83842	      3.53891e-18	
     5879.26463	      3.25418e-18	
     5881.69085	      9.94172e-19	
     5884.11706	      2.51802e-18	
     5886.54327	      2.89114e-18	
     5888.96948	      2.56313e-18	
     5891.39570	      8.87475e-19	
     5893.82191	     -2.15812e-18	
     5896.24812	     -5.74914e-19	
     5898.67434	      1.20559e-18	
     5901.10055	     -4.23997e-19	
     5903.52676	     -1.09754e-18	
     5905.95298	      1.84158e-19	
     5908.37919	      1.46291e-18	
     5910.80540	      3.97857e-18	
     5913.23162	      2.00609e-18	
     5915.65783	      1.34847e-18	
     5918.08404	      8.96362e-19	
     5920.51026	     -1.24693e-18	
     5922.93647	     -6.40264e-19	
     5925.36268	     -2.00588e-18	
     5927.78889	      1.32125e-18	
     5930.21511	      1.66465e-18	
     5932.64132	     -2.21349e-19	
     5935.06753	      2.63601e-18	
     5937.49375	      1.32468e-18	
     5939.91996	      3.01298e-18	
     5942.34617	      2.02645e-18	
     5944.77239	      2.79705e-18	
     5947.19860	      3.28939e-18	
     5949.62481	      2.55148e-18	
     5952.05103	      1.55883e-18	
     5954.47724	     -6.44512e-19	
     5956.90345	      7.01096e-18	
     5959.32966	      4.60768e-18	
     5961.75588	      1.93946e-18	
     5964.18209	      2.32119e-18	
     5966.60830	      2.11548e-18	
     5969.03452	      2.58612e-18	
     5971.46073	      2.35811e-18	
     5973.88694	      2.46617e-18	
     5976.31316	      2.81965e-18	
     5978.73937	      1.74311e-18	
     5981.16558	      2.66349e-18	
     5983.59180	      2.54884e-18	
     5986.01801	      3.72664e-18	
     5988.44422	      4.64243e-18	
     5990.87044	      2.90716e-18	
     5993.29665	      1.42952e-18	
     5995.72286	      3.00675e-18	
     5998.14907	      3.73443e-18	
     6000.57529	      3.48301e-18	
     6003.00150	      5.74043e-18	
     6005.42771	      5.36990e-18	
     6007.85393	      4.54732e-18	
     6010.28014	      2.81359e-18	
     6012.70635	      2.82651e-18	
     6015.13257	      3.02781e-18	
     6017.55878	      5.92549e-18	
     6019.98499	      5.10848e-18	
     6022.41121	      4.51840e-18	
     6024.83742	      5.25136e-18	
     6027.26363	      5.19451e-18	
     6029.68984	      5.11394e-18	
     6032.11606	      6.60440e-18	
     6034.54227	      4.63968e-18	
     6036.96848	      6.50585e-18	
     6039.39470	      5.71427e-18	
     6041.82091	      7.22297e-18	
     6044.24712	      7.24539e-18	
     6046.67334	      7.81882e-18	
     6049.09955	      5.93880e-18	
     6051.52576	      7.52148e-18	
     6053.95198	      8.14109e-18	
     6056.37819	      8.00228e-18	
     6058.80440	      9.14120e-18	
     6061.23062	      8.23509e-18	
     6063.65683	      9.36248e-18	
     6066.08304	      1.03486e-17	
     6068.50925	      8.12241e-18	
     6070.93547	      9.28542e-18	
     6073.36168	      9.27665e-18	
     6075.78789	      8.17086e-18	
     6078.21411	      8.67624e-18	
     6080.64032	      1.01897e-17	
     6083.06653	      9.48209e-18	
     6085.49275	      1.21071e-17	
     6087.91896	      1.17788e-17	
     6090.34517	      9.73647e-18	
     6092.77139	      9.47219e-18	
     6095.19760	      8.88683e-18	
     6097.62381	      1.21629e-17	
     6100.05003	      1.19456e-17	
     6102.47624	      1.11967e-17	
     6104.90245	      1.00674e-17	
     6107.32866	      1.04540e-17	
     6109.75488	      1.12936e-17	
     6112.18109	      9.67153e-18	
     6114.60730	      1.31230e-17	
     6117.03352	      1.47403e-17	
     6119.45973	      1.46547e-17	
     6121.88594	      1.62972e-17	
     6124.31216	      1.42245e-17	
     6126.73837	      1.48807e-17	
     6129.16458	      1.71380e-17	
     6131.59080	      1.57319e-17	
     6134.01701	      1.75832e-17	
     6136.44322	      1.63797e-17	
     6138.86943	      1.51178e-17	
     6141.29565	      1.86646e-17	
     6143.72186	      1.70285e-17	
     6146.14807	      1.57944e-17	
     6148.57429	      1.97663e-17	
     6151.00050	      1.85302e-17	
     6153.42671	      1.86958e-17	
     6155.85293	      1.98673e-17	
     6158.27914	      2.09107e-17	
     6160.70535	      2.02123e-17	
     6163.13157	      1.87287e-17	
     6165.55778	      1.99950e-17	
     6167.98399	      2.15303e-17	
     6170.41021	      2.38415e-17	
     6172.83642	      2.35413e-17	
     6175.26263	      2.31444e-17	
     6177.68884	      2.31788e-17	
     6180.11506	      2.41722e-17	
     6182.54127	      2.16982e-17	
     6184.96748	      2.33489e-17	
     6187.39370	      2.60902e-17	
     6189.81991	      2.56436e-17	
     6192.24612	      2.66814e-17	
     6194.67234	      2.66890e-17	
     6197.09855	      2.81809e-17	
     6199.52476	      2.62315e-17	
     6201.95098	      2.74063e-17	
     6204.37719	      2.82604e-17	
     6206.80340	      2.75238e-17	
     6209.22961	      2.46817e-17	
     6211.65583	      2.80209e-17	
     6214.08204	      2.89000e-17	
     6216.50825	      3.16367e-17	
     6218.93447	      3.21350e-17	
     6221.36068	      3.04144e-17	
     6223.78689	      3.36246e-17	
     6226.21311	      3.52556e-17	
     6228.63932	      3.45070e-17	
     6231.06553	      3.56738e-17	
     6233.49175	      3.23735e-17	
     6235.91796	      3.70345e-17	
     6238.34417	      3.68130e-17	
     6240.77039	      3.62556e-17	
     6243.19660	      3.37948e-17	
     6245.62281	      3.71557e-17	
     6248.04902	      3.71307e-17	
     6250.47524	      3.70598e-17	
     6252.90145	      3.87340e-17	
     6255.32766	      3.74723e-17	
     6257.75388	      3.89552e-17	
     6260.18009	      3.96562e-17	
     6262.60630	      3.80184e-17	
     6265.03252	      4.34675e-17	
     6267.45873	      4.54057e-17	
     6269.88494	      4.68378e-17	
     6272.31116	      4.41951e-17	
     6274.73737	      4.29747e-17	
     6277.16358	      4.37077e-17	
     6279.58979	      4.79046e-17	
     6282.01601	      4.95940e-17	
     6284.44222	      4.90616e-17	
     6286.86843	      4.92727e-17	
     6289.29465	      4.83215e-17	
     6291.72086	      4.76740e-17	
     6294.14707	      4.76029e-17	
     6296.57329	      5.29929e-17	
     6298.99950	      5.35376e-17	
     6301.42571	      5.23272e-17	
     6303.85193	      5.77599e-17	
     6306.27814	      5.83495e-17	
     6308.70435	      5.74439e-17	
     6311.13057	      5.89048e-17	
     6313.55678	      5.74290e-17	
     6315.98299	      5.98000e-17	
     6318.40920	      6.28682e-17	
     6320.83542	      6.07261e-17	
     6323.26163	      6.29310e-17	
     6325.68784	      6.53927e-17	
     6328.11406	      6.35207e-17	
     6330.54027	      6.14188e-17	
     6332.96648	      6.31157e-17	
     6335.39270	      6.82639e-17	
     6337.81891	      7.10230e-17	
     6340.24512	      7.21982e-17	
     6342.67134	      7.33644e-17	
     6345.09755	      7.50308e-17	
     6347.52376	      7.30835e-17	
     6349.94997	      7.10489e-17	
     6352.37619	      7.74532e-17	
     6354.80240	      7.97975e-17	
     6357.22861	      7.33651e-17	
     6359.65483	      7.45069e-17	
     6362.08104	      8.37253e-17	
     6364.50725	      8.52265e-17	
     6366.93347	      8.06786e-17	
     6369.35968	      8.11422e-17	
     6371.78589	      8.12558e-17	
     6374.21211	      8.24670e-17	
     6376.63832	      8.23449e-17	
     6379.06453	      8.66023e-17	
     6381.49075	      8.47419e-17	
     6383.91696	      8.76802e-17	
     6386.34317	      8.74494e-17	
     6388.76938	      8.81888e-17	
     6391.19560	      9.05887e-17	
     6393.62181	      9.12803e-17	
     6396.04802	      9.36180e-17	
     6398.47424	      9.27758e-17	
     6400.90045	      9.06042e-17	
     6403.32666	      9.02653e-17	
     6405.75288	      9.52522e-17	
     6408.17909	      9.57285e-17	
     6410.60530	      9.60958e-17	
     6413.03152	      9.70664e-17	
     6415.45773	      1.01306e-16	
     6417.88394	      1.01421e-16	
     6420.31016	      1.03224e-16	
     6422.73637	      1.02994e-16	
     6425.16258	      1.01456e-16	
     6427.58879	      1.07259e-16	
     6430.01501	      1.06237e-16	
     6432.44122	      1.05216e-16	
     6434.86743	      1.05615e-16	
     6437.29365	      1.06196e-16	
     6439.71986	      1.10784e-16	
     6442.14607	      1.12255e-16	
     6444.57229	      1.11422e-16	
     6446.99850	      1.13564e-16	
     6449.42471	      1.14896e-16	
     6451.85093	      1.14073e-16	
     6454.27714	      1.11227e-16	
     6456.70335	      1.15112e-16	
     6459.12956	      1.19324e-16	
     6461.55578	      1.20828e-16	
     6463.98199	      1.22265e-16	
     6466.40820	      1.21524e-16	
     6468.83442	      1.22855e-16	
     6471.26063	      1.24137e-16	
     6473.68684	      1.23795e-16	
     6476.11306	      1.25366e-16	
     6478.53927	      1.25804e-16	
     6480.96548	      1.26644e-16	
     6483.39170	      1.28848e-16	
     6485.81791	      1.30513e-16	
     6488.24412	      1.29998e-16	
     6490.67034	      1.31582e-16	
     6493.09655	      1.33561e-16	
     6495.52276	      1.38614e-16	
     6497.94897	      1.44690e-16	
     6500.37519	      1.39372e-16	
     6502.80140	      1.41309e-16	
     6505.22761	      1.45428e-16	
     6507.65383	      1.49654e-16	
     6510.08004	      1.52108e-16	
     6512.50625	      1.54921e-16	
     6514.93247	      1.57748e-16	
     6517.35868	      1.57577e-16	
     6519.78489	      1.60491e-16	
     6522.21111	      1.59341e-16	
     6524.63732	      1.64812e-16	
     6527.06353	      1.68079e-16	
     6529.48974	      1.69315e-16	
     6531.91596	      1.78154e-16	
     6534.34217	      1.77545e-16	
     6536.76838	      1.72388e-16	
     6539.19460	      1.81358e-16	
     6541.62081	      1.82388e-16	
     6544.04702	      1.87021e-16	
     6546.47324	      1.86465e-16	
     6548.89945	      1.83842e-16	
     6551.32566	      1.84019e-16	
     6553.75188	      1.90782e-16	
     6556.17809	      1.91682e-16	
     6558.60430	      1.93573e-16	
     6561.03052	      1.95105e-16	
     6563.45673	      1.88381e-16	
     6565.88294	      1.69490e-16	
     6568.30915	      1.85264e-16	
     6570.73537	      1.89852e-16	
     6573.16158	      1.93084e-16	
     6575.58779	      1.96591e-16	
     6578.01401	      1.90870e-16	
     6580.44022	      1.97580e-16	
     6582.86643	      2.01953e-16	
     6585.29265	      2.03679e-16	
     6587.71886	      2.08660e-16	
     6590.14507	      2.08803e-16	
     6592.57129	      2.09249e-16	
     6594.99750	      2.11117e-16	
     6597.42371	      2.14364e-16	
     6599.84992	      2.16651e-16	
     6602.27614	      2.15273e-16	
     6604.70235	      2.14486e-16	
     6607.12856	      2.21430e-16	
     6609.55478	      2.27090e-16	
     6611.98099	      2.26219e-16	
     6614.40720	      2.28550e-16	
     6616.83342	      2.32250e-16	
     6619.25963	      2.33181e-16	
     6621.68584	      2.28126e-16	
     6624.11206	      2.29855e-16	
     6626.53827	      2.31460e-16	
     6628.96448	      2.35537e-16	
     6631.39070	      2.41320e-16	
     6633.81691	      2.41277e-16	
     6636.24312	      2.44181e-16	
     6638.66933	      2.41523e-16	
     6641.09555	      2.41870e-16	
     6643.52176	      2.49644e-16	
     6645.94797	      2.47525e-16	
     6648.37419	      2.47847e-16	
     6650.80040	      2.55024e-16	
     6653.22661	      2.55148e-16	
     6655.65283	      2.54205e-16	
     6658.07904	      2.53620e-16	
     6660.50525	      2.54552e-16	
     6662.93147	      2.62135e-16	
     6665.35768	      2.64851e-16	
     6667.78389	      2.67004e-16	
     6670.21011	      2.66361e-16	
     6672.63632	      2.59409e-16	
     6675.06253	      2.61231e-16	
     6677.48874	      2.72460e-16	
     6679.91496	      2.75782e-16	
     6682.34117	      2.70140e-16	
     6684.76738	      2.76205e-16	
     6687.19360	      2.75034e-16	
     6689.61981	      2.77085e-16	
     6692.04602	      2.78000e-16	
     6694.47224	      2.79866e-16	
     6696.89845	      2.78304e-16	
     6699.32466	      2.84546e-16	
     6701.75088	      2.85348e-16	
     6704.17709	      2.96045e-16	
     6706.60330	      2.90331e-16	
     6709.02951	      2.89336e-16	
     6711.45573	      2.91074e-16	
     6713.88194	      2.93468e-16	
     6716.30815	      3.01717e-16	
     6718.73437	      2.97768e-16	
     6721.16058	      2.98848e-16	
     6723.58679	      3.05649e-16	
     6726.01301	      3.04221e-16	
     6728.43922	      3.06879e-16	
     6730.86543	      3.05196e-16	
     6733.29165	      3.02823e-16	
     6735.71786	      3.08924e-16	
     6738.14407	      3.13141e-16	
     6740.57029	      3.18042e-16	
     6742.99650	      3.18667e-16	
     6745.42271	      3.18843e-16	
     6747.84892	      3.14763e-16	
     6750.27514	      3.21057e-16	
     6752.70135	      3.18791e-16	
     6755.12756	      3.19227e-16	
     6757.55378	      3.23770e-16	
     6759.97999	      3.26451e-16	
     6762.40620	      3.29776e-16	
     6764.83242	      3.28727e-16	
     6767.25863	      3.30553e-16	
     6769.68484	      3.32523e-16	
     6772.11106	      3.27293e-16	
     6774.53727	      3.27583e-16	
     6776.96348	      3.27907e-16	
     6779.38969	      3.28286e-16	
     6781.81591	      3.29879e-16	
     6784.24212	      3.22473e-16	
     6786.66833	      3.17950e-16	
     6789.09455	      3.22677e-16	
     6791.52076	      3.21183e-16	
     6793.94697	      3.17084e-16	
     6796.37319	      3.16093e-16	
     6798.79940	      3.15660e-16	
     6801.22561	      3.21585e-16	
     6803.65183	      3.25718e-16	
     6806.07804	      3.21286e-16	
     6808.50425	      3.16953e-16	
     6810.93047	      3.16795e-16	
     6813.35668	      3.19964e-16	
     6815.78289	      3.21367e-16	
     6818.20910	      3.17401e-16	
     6820.63532	      3.16746e-16	
     6823.06153	      3.16851e-16	
     6825.48774	      3.18813e-16	
     6827.91396	      3.17099e-16	
     6830.34017	      3.19786e-16	
     6832.76638	      3.21170e-16	
     6835.19260	      3.14656e-16	
     6837.61881	      3.11758e-16	
     6840.04502	      3.10642e-16	
     6842.47124	      3.04963e-16	
     6844.89745	      3.05753e-16	
     6847.32366	      3.09303e-16	
     6849.74987	      3.07777e-16	
     6852.17609	      3.04035e-16	
     6854.60230	      2.99343e-16	
     6857.02851	      3.03855e-16	
     6859.45473	      2.93666e-16	
     6861.88094	      2.70514e-16	
     6864.30715	      2.49465e-16	
     6866.73337	      2.41441e-16	
     6869.15958	      2.34527e-16	
     6871.58579	      2.39530e-16	
     6874.01201	      2.50687e-16	
     6876.43822	      2.63201e-16	
     6878.86443	      2.64692e-16	
     6881.29065	      2.67980e-16	
     6883.71686	      2.63238e-16	
     6886.14307	      2.49569e-16	
     6888.56928	      2.47045e-16	
     6890.99550	      2.39508e-16	
     6893.42171	      2.34055e-16	
     6895.84792	      2.43607e-16	
     6898.27414	      2.47610e-16	
     6900.70035	      2.51045e-16	
     6903.12656	      2.54945e-16	
     6905.55278	      2.58065e-16	
     6907.97899	      2.54957e-16	
     6910.40520	      2.56692e-16	
     6912.83142	      2.56852e-16	
     6915.25763	      2.57180e-16	
     6917.68384	      2.66132e-16	
     6920.11006	      2.69482e-16	
     6922.53627	      2.77010e-16	
     6924.96248	      2.81693e-16	
     6927.38869	      2.84855e-16	
     6929.81491	      2.89517e-16	
     6932.24112	      2.84329e-16	
     6934.66733	      2.84952e-16	
     6937.09355	      2.91107e-16	
     6939.51976	      2.97128e-16	
     6941.94597	      3.04084e-16	
     6944.37219	      3.08374e-16	
     6946.79840	      3.06239e-16	
     6949.22461	      3.01961e-16	
     6951.65083	      2.98318e-16	
     6954.07704	      2.95079e-16	
     6956.50325	      3.02090e-16	
     6958.92946	      3.02970e-16	
     6961.35568	      2.99180e-16	
     6963.78189	      2.97080e-16	
     6966.20810	      2.96552e-16	
     6968.63432	      2.94009e-16	
     6971.06053	      2.97283e-16	
     6973.48674	      3.01771e-16	
     6975.91296	      3.02646e-16	
     6978.33917	      3.07184e-16	
     6980.76538	      3.13220e-16	
     6983.19160	      3.07536e-16	
     6985.61781	      3.02665e-16	
     6988.04402	      3.02880e-16	
     6990.47024	      3.01810e-16	
     6992.89645	      3.01400e-16	
     6995.32266	      3.03376e-16	
     6997.74887	      3.08202e-16	
     7000.17509	      3.13631e-16	
     7002.60130	      3.12964e-16	
     7005.02751	      3.12897e-16	
     7007.45373	      3.25558e-16	
     7009.87994	      3.25953e-16	
     7012.30615	      3.26579e-16	
     7014.73237	      3.26886e-16	
     7017.15858	      3.32611e-16	
     7019.58479	      3.35316e-16	
     7022.01101	      3.38799e-16	
     7024.43722	      3.49876e-16	
     7026.86343	      3.55052e-16	
     7029.28964	      3.61409e-16	
     7031.71586	      3.66510e-16	
     7034.14207	      3.75174e-16	
     7036.56828	      3.84739e-16	
     7038.99450	      3.82478e-16	
     7041.42071	      3.80258e-16	
     7043.84692	      3.76826e-16	
     7046.27314	      3.80757e-16	
     7048.69935	      3.85187e-16	
     7051.12556	      3.77915e-16	
     7053.55178	      3.75138e-16	
     7055.97799	      3.73152e-16	
     7058.40420	      3.72083e-16	
     7060.83042	      3.75923e-16	
     7063.25663	      3.82553e-16	
     7065.68284	      3.88334e-16	
     7068.10905	      3.89431e-16	
     7070.53527	      3.93871e-16	
     7072.96148	      3.94023e-16	
     7075.38769	      3.94660e-16	
     7077.81391	      3.96330e-16	
     7080.24012	      3.98315e-16	
     7082.66633	      4.01669e-16	
     7085.09255	      3.86859e-16	
     7087.51876	      3.85065e-16	
     7089.94497	      3.89636e-16	
     7092.37119	      3.95514e-16	
     7094.79740	      3.99565e-16	
     7097.22361	      4.00920e-16	
     7099.64982	      4.02553e-16	
     7102.07604	      3.99783e-16	
     7104.50225	      4.04428e-16	
     7106.92846	      4.06634e-16	
     7109.35468	      4.13289e-16	
     7111.78089	      4.11266e-16	
     7114.20710	      4.07384e-16	
     7116.63332	      4.13544e-16	
     7119.05953	      4.13993e-16	
     7121.48574	      4.11059e-16	
     7123.91196	      4.09514e-16	
     7126.33817	      4.12169e-16	
     7128.76438	      4.07801e-16	
     7131.19060	      4.10848e-16	
     7133.61681	      4.12370e-16	
     7136.04302	      4.13774e-16	
     7138.46923	      4.17052e-16	
     7140.89545	      4.18287e-16	
     7143.32166	      4.23848e-16	
     7145.74787	      4.26702e-16	
     7148.17409	      4.29945e-16	
     7150.60030	      4.27173e-16	
     7153.02651	      4.33696e-16	
     7155.45273	      4.30954e-16	
     7157.87894	      4.26091e-16	
     7160.30515	      4.31266e-16	
     7162.73137	      4.29420e-16	
     7165.15758	      4.25006e-16	
     7167.58379	      4.26169e-16	
     7170.01001	      4.25709e-16	
     7172.43622	      4.27137e-16	
     7174.86243	      3.96784e-16	
     7177.28864	      4.13132e-16	
     7179.71486	      4.37163e-16	
     7182.14107	      4.33333e-16	
     7184.56728	      4.34026e-16	
     7186.99350	      4.30254e-16	
     7189.41971	      4.36385e-16	
     7191.84592	      4.43444e-16	
     7194.27214	      4.42331e-16	
     7196.69835	      4.40493e-16	
     7199.12456	      4.40799e-16	
     7201.55078	      4.45397e-16	
     7203.97699	      4.48716e-16	
     7206.40320	      4.50691e-16	
     7208.82941	      4.53970e-16	
     7211.25563	      4.61718e-16	
     7213.68184	      4.60082e-16	
     7216.10805	      4.54070e-16	
     7218.53427	      4.58451e-16	
     7220.96048	      4.60594e-16	
     7223.38669	      4.60981e-16	
     7225.81291	      4.61955e-16	
     7228.23912	      4.63206e-16	
     7230.66533	      4.75041e-16	
     7233.09155	      4.72778e-16	
     7235.51776	      4.65117e-16	
     7237.94397	      4.58725e-16	
     7240.37019	      4.57862e-16	
     7242.79640	      4.64141e-16	
     7245.22261	      4.72601e-16	
     7247.64882	      4.80211e-16	
     7250.07504	      4.79501e-16	
     7252.50125	      4.79284e-16	
     7254.92746	      4.72754e-16	
     7257.35368	      4.81617e-16	
     7259.77989	      4.78973e-16	
     7262.20610	      4.77882e-16	
     7264.63232	      4.80250e-16	
     7267.05853	      4.73213e-16	
     7269.48474	      4.68396e-16	
     7271.91096	      4.77271e-16	
     7274.33717	      4.86228e-16	
     7276.76338	      4.86235e-16	
     7279.18959	      4.90701e-16	
     7281.61581	      4.85039e-16	
     7284.04202	      4.81240e-16	
     7286.46823	      4.79760e-16	
     7288.89445	      4.86058e-16	
     7291.32066	      4.83953e-16	
     7293.74687	      4.85551e-16	
     7296.17309	      4.83852e-16	
     7298.59930	      4.82432e-16	
     7301.02551	      4.79279e-16	
     7303.45173	      4.82917e-16	
     7305.87794	      4.84742e-16	
     7308.30415	      4.87810e-16	
     7310.73037	      4.85069e-16	
     7313.15658	      4.82758e-16	
     7315.58279	      4.86226e-16	
     7318.00900	      4.83895e-16	
     7320.43522	      4.80836e-16	
     7322.86143	      4.74976e-16	
     7325.28764	      4.69349e-16	
     7327.71386	      4.64695e-16	
     7330.14007	      4.67338e-16	
     7332.56628	      4.73580e-16	
     7334.99250	      4.69911e-16	
     7337.41871	      4.47298e-16	
     7339.84492	      4.32936e-16	
     7342.27114	      4.68058e-16	
     7344.69735	      4.71020e-16	
     7347.12356	      4.66239e-16	
     7349.54977	      4.62198e-16	
     7351.97599	      4.59347e-16	
     7354.40220	      4.59220e-16	
     7356.82841	      4.63621e-16	
     7359.25463	      4.60838e-16	
     7361.68084	      4.55813e-16	
     7364.10705	      4.57508e-16	
     7366.53327	      4.57876e-16	
     7368.95948	      4.57468e-16	
     7371.38569	      4.50197e-16	
     7373.81191	      4.44202e-16	
     7376.23812	      4.45078e-16	
     7378.66433	      4.41605e-16	
     7381.09055	      4.36556e-16	
     7383.51676	      4.34334e-16	
     7385.94297	      4.36652e-16	
     7388.36918	      4.36061e-16	
     7390.79540	      4.30083e-16	
     7393.22161	      4.26671e-16	
     7395.64782	      4.26741e-16	
     7398.07404	      4.30413e-16	
     7400.50025	      4.25300e-16	
     7402.92646	      4.20516e-16	
     7405.35268	      4.14631e-16	
     7407.77889	      4.13245e-16	
     7410.20510	      4.14044e-16	
     7412.63132	      4.10895e-16	
     7415.05753	      4.00098e-16	
     7417.48374	      3.99356e-16	
     7419.90995	      3.99616e-16	
     7422.33617	      3.99771e-16	
     7424.76238	      3.99499e-16	
     7427.18859	      4.01974e-16	
     7429.61481	      3.91171e-16	
     7432.04102	      3.84903e-16	
     7434.46723	      3.88028e-16	
     7436.89345	      3.83957e-16	
     7439.31966	      3.82732e-16	
     7441.74587	      3.78994e-16	
     7444.17209	      3.75851e-16	
     7446.59830	      3.74810e-16	
     7449.02451	      3.68267e-16	
     7451.45073	      3.66773e-16	
     7453.87694	      3.66553e-16	
     7456.30315	      3.61448e-16	
     7458.72936	      3.53209e-16	
     7461.15558	      3.52761e-16	
     7463.58179	      3.58157e-16	
     7466.00800	      3.46105e-16	
     7468.43422	      3.37916e-16	
     7470.86043	      3.33099e-16	
     7473.28664	      3.28942e-16	
     7475.71286	      3.30018e-16	
     7478.13907	      3.25388e-16	
     7480.56528	      3.22047e-16	
     7482.99150	      3.27214e-16	
     7485.41771	      3.21040e-16	
     7487.84392	      3.13798e-16	
     7490.27014	      3.06878e-16	
     7492.69635	      3.07358e-16	
     7495.12256	      3.00957e-16	
     7497.54877	      3.01410e-16	
     7499.97499	      2.95125e-16	
     7502.40120	      2.94489e-16	
     7504.82741	      2.93101e-16	
     7507.25363	      2.88528e-16	
     7509.67984	      2.80587e-16	
     7512.10605	      2.78323e-16	
     7514.53227	      2.75184e-16	
     7516.95848	      2.76586e-16	
     7519.38469	      2.63145e-16	
     7521.81091	      2.63246e-16	
     7524.23712	      2.59795e-16	
     7526.66333	      2.54258e-16	
     7529.08954	      2.42187e-16	
     7531.51576	      2.40913e-16	
     7533.94197	      2.35247e-16	
     7536.36818	      2.36184e-16	
     7538.79440	      2.35736e-16	
     7541.22061	      2.29197e-16	
     7543.64682	      2.27693e-16	
     7546.07304	      2.26489e-16	
     7548.49925	      2.22171e-16	
     7550.92546	      2.13409e-16	
     7553.35168	      2.01377e-16	
     7555.77789	      1.98966e-16	
     7558.20410	      1.98927e-16	
     7560.63032	      1.89332e-16	
     7563.05653	      1.88287e-16	
     7565.48274	      1.85206e-16	
     7567.90895	      1.73597e-16	
     7570.33517	      1.70662e-16	
     7572.76138	      1.69684e-16	
     7575.18759	      1.64052e-16	
     7577.61381	      1.57235e-16	
     7580.04002	      1.55998e-16	
     7582.46623	      1.52863e-16	
     7584.89245	      1.45199e-16	
     7587.31866	      1.29013e-16	
     7589.74487	      1.08424e-16	
     7592.17109	      8.40498e-17	
     7594.59730	      6.64308e-17	
     7597.02351	      5.33770e-17	
     7599.44972	      4.21991e-17	
     7601.87594	      3.74522e-17	
     7604.30215	      3.81735e-17	
     7606.72836	      4.01721e-17	
     7609.15458	      4.73280e-17	
     7611.58079	      5.65217e-17	
     7614.00700	      5.89658e-17	
     7616.43322	      5.90854e-17	
     7618.85943	      5.07803e-17	
     7621.28564	      3.90077e-17	
     7623.71186	      3.47446e-17	
     7626.13807	      3.49340e-17	
     7628.56428	      3.04809e-17	
     7630.99050	      2.92221e-17	
     7633.41671	      2.73225e-17	
     7635.84292	      2.38201e-17	
     7638.26913	      2.04159e-17	
     7640.69535	      2.11363e-17	
     7643.12156	      1.58651e-17	
     7645.54777	      1.52663e-17	
     7647.97399	      1.13629e-17	
     7650.40020	      8.00557e-18	
     7652.82641	      6.64906e-18	
     7655.25263	      3.30265e-18	
     7657.67884	      2.74230e-18	
     7660.10505	     -7.44877e-19	
     7662.53127	     -4.57813e-19	
     7664.95748	      3.27905e-18	
     7667.38369	      4.30357e-18	
     7669.80990	      4.53722e-18	
     7672.23612	      8.51567e-18	
     7674.66233	      1.03778e-17	
     7677.08854	      1.17071e-17	
     7679.51476	      1.36972e-17	
     7681.94097	      1.49858e-17	
     7684.36718	      1.51340e-17	
     7686.79340	      1.08723e-17	
     7689.21961	      7.26481e-18	
     7691.64582	      5.80912e-18	
     7694.07204	      4.54384e-18	
     7696.49825	      3.58863e-18	
     7698.92446	      3.83857e-18	
     7701.35068	      7.30580e-18	
     7703.77689	      8.99699e-18	
     7706.20310	      1.07602e-17	
     7708.62931	      1.78114e-17	
     7711.05553	      2.44789e-17	
     7713.48174	      2.84286e-17	
     7715.90795	      3.69806e-17	
     7718.33417	      4.45287e-17	
     7720.76038	      5.24320e-17	
     7723.18659	      5.75176e-17	
     7725.61281	      6.16570e-17	
     7728.03902	      7.42768e-17	
     7730.46523	      8.58535e-17	
     7732.89145	      8.39303e-17	
     7735.31766	      8.59554e-17	
     7737.74387	      8.98132e-17	
     7740.17009	      9.58798e-17	
     7742.59630	      9.38141e-17	
     7745.02251	      9.55114e-17	
     7747.44872	      1.13151e-16	
     7749.87494	      1.29964e-16	
     7752.30115	      1.26690e-16	
     7754.72736	      1.32825e-16	
     7757.15358	      1.36657e-16	
     7759.57979	      1.36163e-16	
     7762.00600	      1.39956e-16	
     7764.43222	      1.52905e-16	
     7766.85843	      1.66499e-16	
     7769.28464	      1.70639e-16	
     7771.71086	      1.77104e-16	
     7774.13707	      1.90907e-16	
     7776.56328	      1.94597e-16	
     7778.98949	      1.93954e-16	
     7781.41571	      1.91152e-16	
     7783.84192	      1.91885e-16	
     7786.26813	      1.93754e-16	
     7788.69435	      1.92923e-16	
     7791.12056	      1.63911e-16	
     7793.54677	      1.27141e-16	
     7795.97299	      1.09237e-16	
     7798.39920	      1.17053e-16	
     7800.82541	      1.52201e-16	
     7803.25163	      1.95546e-16	
     7805.67784	      2.25785e-16	
     7808.10405	      2.36673e-16	
     7810.53027	      2.54643e-16	
     7812.95648	      2.77786e-16	
     7815.38269	      2.95317e-16	
     7817.80890	      3.08081e-16	
     7820.23512	      3.07989e-16	
     7822.66133	      3.14532e-16	
     7825.08754	      3.18708e-16	
     7827.51376	      3.25885e-16	
     7829.93997	      3.29592e-16	
     7832.36618	      3.35025e-16	
     7834.79240	      3.39345e-16	
     7837.21861	      3.43359e-16	
     7839.64482	      3.51684e-16	
     7842.07104	      3.63401e-16	
     7844.49725	      3.65227e-16	
     7846.92346	      3.67282e-16	
     7849.34967	      3.68585e-16	
     7851.77589	      3.65487e-16	
     7854.20210	      3.82807e-16	
     7856.62831	      3.95775e-16	
     7859.05453	      4.08663e-16	
     7861.48074	      4.30493e-16	
     7863.90695	      4.22683e-16	
     7866.33317	      4.19498e-16	
     7868.75938	      4.17920e-16	
     7871.18559	      4.28955e-16	
     7873.61181	      4.49800e-16	
     7876.03802	      4.65593e-16	
     7878.46423	      4.75465e-16	
     7880.89045	      4.75470e-16	
     7883.31666	      4.68096e-16	
     7885.74287	      4.69215e-16	
     7888.16908	      4.81964e-16	
     7890.59530	      4.93955e-16	
     7893.02151	      5.17431e-16	
     7895.44772	      5.25663e-16	
     7897.87394	      5.33805e-16	
     7900.30015	      5.23527e-16	
     7902.72636	      5.30176e-16	
     7905.15258	      5.18424e-16	
     7907.57879	      5.12246e-16	
     7910.00500	      5.25066e-16	
     7912.43122	      5.46384e-16	
     7914.85743	      5.06215e-16	
     7917.28364	      5.42578e-16	
     7919.70985	      5.94530e-16	
     7922.13607	      5.95238e-16	
     7924.56228	      6.08270e-16	
     7926.98849	      6.11530e-16	
     7929.41471	      6.24861e-16	
     7931.84092	      6.21515e-16	
     7934.26713	      6.05279e-16	
     7936.69335	      5.63030e-16	
     7939.11956	      4.63454e-16	
     7941.54577	      3.49921e-16	
     7943.97199	      3.04988e-16	
     7946.39820	      3.64515e-16	
     7948.82441	      4.68869e-16	
     7951.25063	      5.60536e-16	
     7953.67684	      6.33095e-16	
     7956.10305	      6.65527e-16	
     7958.52926	      6.96274e-16	
     7960.95548	      7.04494e-16	
     7963.38169	      6.91216e-16	
     7965.80790	      6.99548e-16	
     7968.23412	      7.18415e-16	
     7970.66033	      7.43123e-16	
     7973.08654	      7.57201e-16	
     7975.51276	      7.79016e-16	
     7977.93897	      7.94168e-16	
     7980.36518	      8.06996e-16	
     7982.79140	      7.89009e-16	
     7985.21761	      7.73052e-16	
     7987.64382	      7.83753e-16	
     7990.07004	      8.08703e-16	
     7992.49625	      8.26421e-16	
     7994.92246	      8.50994e-16	
     7997.34867	      8.53441e-16	
     7999.77489	      8.48227e-16	
     8002.20110	      8.47708e-16	
     8004.62731	      8.42682e-16	
     8007.05353	      8.42562e-16	
     8009.47974	      8.45093e-16	
     8011.90595	      8.54215e-16	
     8014.33217	      8.60429e-16	
     8016.75838	      8.75129e-16	
     8019.18459	      8.96994e-16	
     8021.61081	      9.14212e-16	
     8024.03702	      9.47735e-16	
     8026.46323	      9.56895e-16	
     8028.88944	      9.60431e-16	
     8031.31566	      9.62578e-16	
     8033.74187	      9.54435e-16	
     8036.16808	      9.63290e-16	
     8038.59430	      9.84548e-16	
     8041.02051	      9.97440e-16	
     8043.44672	      1.00138e-15	
     8045.87294	      1.01053e-15	
     8048.29915	      1.02602e-15	
     8050.72536	      1.03246e-15	
     8053.15158	      1.02895e-15	
     8055.57779	      1.01809e-15	
     8058.00400	      1.00730e-15	
     8060.43022	      1.01657e-15	
     8062.85643	      1.04360e-15	
     8065.28264	      1.08092e-15	
     8067.70885	      1.11980e-15	
     8070.13507	      1.12990e-15	
     8072.56128	      1.12494e-15	
     8074.98749	      1.14160e-15	
     8077.41371	      1.15805e-15	
     8079.83992	      1.15749e-15	
     8082.26613	      1.15153e-15	
     8084.69235	      1.14730e-15	
     8087.11856	      1.15615e-15	
     8089.54477	      1.15865e-15	
     8091.97099	      1.16781e-15	
     8094.39720	      1.17767e-15	
     8096.82341	      1.16376e-15	
     8099.24962	      1.17431e-15	
     8101.67584	      1.19369e-15	
     8104.10205	      1.21057e-15	
     8106.52826	      1.21437e-15	
     8108.95448	      1.20547e-15	
     8111.38069	      1.19435e-15	
     8113.80690	      1.18769e-15	
     8116.23312	      1.19325e-15	
     8118.65933	      1.21890e-15	
     8121.08554	      1.22813e-15	
     8123.51176	      1.25301e-15	
     8125.93797	      1.26026e-15	
     8128.36418	      1.25359e-15	
     8130.79040	      1.27294e-15	
     8133.21661	      1.28535e-15	
     8135.64282	      1.29262e-15	
     8138.06903	      1.27465e-15	
     8140.49525	      1.26522e-15	
     8142.92146	      1.25558e-15	
     8145.34767	      1.26819e-15	
     8147.77389	      1.28559e-15	
     8150.20010	      1.31372e-15	
     8152.62631	      1.33252e-15	
     8155.05253	      1.32304e-15	
     8157.47874	      1.30615e-15	
     8159.90495	      1.31627e-15	
     8162.33117	      1.34081e-15	
     8164.75738	      1.35176e-15	
     8167.18359	      1.35794e-15	
     8169.60980	      1.35280e-15	
     8172.03602	      1.33247e-15	
     8174.46223	      1.27992e-15	
     8176.88844	      1.17465e-15	
     8179.31466	      1.11795e-15	
     8181.74087	      1.13911e-15	
     8184.16708	      1.15158e-15	
     8186.59330	      1.11920e-15	
     8189.01951	      1.04428e-15	
     8191.44572	      1.00634e-15	
     8193.87194	      1.05397e-15	
     8196.29815	      1.16362e-15	
     8198.72436	      1.26240e-15	
     8201.15058	      1.34643e-15	
     8203.57679	      1.40692e-15	
     8206.00300	      1.43215e-15	
     8208.42921	      1.45174e-15	
     8210.85543	      1.46184e-15	
     8213.28164	      1.46577e-15	
     8215.70785	      1.47513e-15	
     8218.13407	      1.51508e-15	
     8220.56028	      1.50944e-15	
     8222.98649	      1.49267e-15	
     8225.41271	      1.50291e-15	
     8227.83892	      1.51191e-15	
     8230.26513	      1.53771e-15	
     8232.69135	      1.55437e-15	
     8235.11756	      1.57147e-15	
     8237.54377	      1.58530e-15	
     8239.96998	      1.58139e-15	
     8242.39620	      1.58873e-15	
     8244.82241	      1.57921e-15	
     8247.24862	      1.58706e-15	
     8249.67484	      1.57833e-15	
     8252.10105	      1.57498e-15	
     8254.52726	      1.58442e-15	
     8256.95348	      1.60921e-15	
     8259.37969	      1.62888e-15	
     8261.80590	      1.65708e-15	
     8264.23212	      1.67292e-15	
     8266.65833	      1.66561e-15	
     8269.08454	      1.65884e-15	
     8271.51076	      1.64647e-15	
     8273.93697	      1.64130e-15	
     8276.36318	      1.63682e-15	
     8278.78939	      1.63789e-15	
     8281.21561	      1.62967e-15	
     8283.64182	      1.64159e-15	
     8286.06803	      1.64307e-15	
     8288.49425	      1.63188e-15	
     8290.92046	      1.63417e-15	
     8293.34667	      1.62871e-15	
     8295.77289	      1.63743e-15	
     8298.19910	      1.65543e-15	
     8300.62531	      1.66814e-15	
     8303.05153	      1.64360e-15	
     8305.47774	      1.62934e-15	
     8307.90395	      1.58273e-15	
     8310.33017	      1.57059e-15	
     8312.75638	      1.56524e-15	
     8315.18259	      1.58136e-15	
     8317.60880	      1.71242e-15	
     8320.03502	      1.70591e-15	
     8322.46123	      1.70929e-15	
     8324.88744	      1.73311e-15	
     8327.31366	      1.74636e-15	
     8329.73987	      1.77368e-15	
     8332.16608	      1.79491e-15	
     8334.59230	      1.80198e-15	
     8337.01851	      1.81995e-15	
     8339.44472	      1.84773e-15	
     8341.87094	      1.82581e-15	
     8344.29715	      1.81925e-15	
     8346.72336	      1.81038e-15	
     8349.14957	      1.77003e-15	
     8351.57579	      1.77184e-15	
     8354.00200	      1.74895e-15	
     8356.42821	      1.67771e-15	
     8358.85443	      1.77906e-15	
     8361.28064	      1.81193e-15	
     8363.70685	      1.83914e-15	
     8366.13307	      1.84418e-15	
     8368.55928	      1.83303e-15	
     8370.98549	      1.83313e-15	
     8373.41171	      1.83906e-15	
     8375.83792	      1.86093e-15	
     8378.26413	      1.85819e-15	
     8380.69035	      1.85257e-15	
     8383.11656	      1.84362e-15	
     8385.54277	      1.85843e-15	
     8387.96898	      1.85987e-15	
     8390.39520	      1.86966e-15	
     8392.82141	      1.89926e-15	
     8395.24762	      1.95941e-15	
     8397.67384	      1.98271e-15	
     8400.10005	      1.97340e-15	
     8402.52626	      2.02536e-15	
     8404.95248	      2.05888e-15	
     8407.37869	      2.04699e-15	
     8409.80490	      2.05582e-15	
     8412.23112	      2.03617e-15	
     8414.65733	      2.00285e-15	
     8417.08354	      2.01222e-15	
     8419.50975	      2.01202e-15	
     8421.93597	      2.00755e-15	
     8424.36218	      1.97792e-15	
     8426.78839	      1.94984e-15	
     8429.21461	      1.91668e-15	
     8431.64082	      1.89117e-15	
     8434.06703	      1.88283e-15	
     8436.49325	      1.86022e-15	
     8438.91946	      1.83528e-15	
     8441.34567	      1.81232e-15	
     8443.77189	      1.80078e-15	
     8446.19810	      1.78270e-15	
     8448.62431	      1.77242e-15	
     8451.05053	      1.78746e-15	
     8453.47674	      1.79987e-15	
     8455.90295	      1.82446e-15	
     8458.32916	      1.87372e-15	
     8460.75538	      1.91694e-15	
     8463.18159	      1.91170e-15	
     8465.60780	      1.91061e-15	
     8468.03402	      1.90132e-15	
     8470.46023	      1.87587e-15	
     8472.88644	      1.86196e-15	
     8475.31266	      1.81926e-15	
     8477.73887	      1.78055e-15	
     8480.16508	      1.76653e-15	
     8482.59130	      1.77592e-15	
     8485.01751	      1.78154e-15	
     8487.44372	      1.82382e-15	
     8489.86993	      1.83569e-15	
     8492.29615	      1.81464e-15	
     8494.72236	      1.78742e-15	
     8497.14857	      1.80667e-15	
     8499.57479	      1.81785e-15	
     8502.00100	      1.81314e-15	
     8504.42721	      1.83246e-15	
     8506.85343	      1.82866e-15	
     8509.27964	      1.79582e-15	
     8511.70585	      1.64422e-15	
     8514.13207	      1.40014e-15	
     8516.55828	      1.22719e-15	
     8518.98449	      1.25632e-15	
     8521.41071	      1.42866e-15	
     8523.83692	      1.64295e-15	
     8526.26313	      1.78104e-15	
     8528.68934	      1.90902e-15	
     8531.11556	      1.97901e-15	
     8533.54177	      2.02328e-15	
     8535.96798	      2.05050e-15	
     8538.39420	      2.07820e-15	
     8540.82041	      2.09123e-15	
     8543.24662	      2.09355e-15	
     8545.67284	      2.09205e-15	
     8548.09905	      2.11013e-15	
     8550.52526	      2.10684e-15	
     8552.95148	      2.09635e-15	
     8555.37769	      2.07992e-15	
     8557.80390	      2.07840e-15	
     8560.23012	      2.08403e-15	
     8562.65633	      2.08663e-15	
     8565.08254	      2.10163e-15	
     8567.50875	      2.11712e-15	
     8569.93497	      2.14499e-15	
     8572.36118	      2.18599e-15	
     8574.78739	      2.21235e-15	
     8577.21361	      2.24837e-15	
     8579.63982	      2.25832e-15	
     8582.06603	      2.23835e-15	
     8584.49225	      2.23578e-15	
     8586.91846	      2.23503e-15	
     8589.34467	      2.21744e-15	
     8591.77089	      2.20481e-15	
     8594.19710	      2.18982e-15	
     8596.62331	      2.17993e-15	
     8599.04952	      2.18146e-15	
     8601.47574	      2.12446e-15	
     8603.90195	      1.97253e-15	
     8606.32816	      1.72806e-15	
     8608.75438	      1.45875e-15	
     8611.18059	      1.26478e-15	
     8613.60680	      1.15653e-15	
     8616.03302	      1.09700e-15	
     8618.45923	      1.07358e-15	
     8620.88544	      1.06782e-15	
     8623.31166	      1.01952e-15	
     8625.73787	      9.76989e-16	
     8628.16408	      9.74717e-16	
     8630.59030	      9.89712e-16	
     8633.01651	      1.02944e-15	
     8635.44272	      1.08722e-15	
     8637.86893	      9.41576e-16	
     8640.29515	      0.00000e+00	
     8642.72136	      0.00000e+00	
     8645.14757	      0.00000e+00	
     8647.57379	      0.00000e+00	
     8650.00000	      0.00000e+00	
#time:0.052223
