# Keck LRIS spectra of late-M, L and T dwarfs
# spty = L1.5  (Spectral type)
#
#     WAVELENGTH	#           FLUX	
#     (ANGSTROM)	#  (ERG/CM2/S/A)	
################	################	
      6300.00000	     2.14220e-18	
      6301.90000	     2.18902e-18	
      6303.80000	     1.33949e-18	
      6305.70000	     2.87881e-18	
      6307.60000	     2.87173e-18	
      6309.50000	     3.50320e-18	
      6311.40000	     2.82678e-18	
      6313.30000	     3.04672e-18	
      6315.20000	     2.01231e-18	
      6317.10000	     2.36832e-18	
      6319.00000	     2.24868e-18	
      6320.90000	     3.20321e-18	
      6322.80000	     2.69605e-18	
      6324.70000	     3.68174e-18	
      6326.60000	     2.88990e-18	
      6328.50000	     2.05911e-18	
      6330.40000	     2.46544e-18	
      6332.30000	     2.47540e-18	
      6334.20000	     3.58199e-18	
      6336.10000	     3.59602e-18	
      6338.00000	     3.35358e-18	
      6339.90000	     3.53435e-18	
      6341.80000	     2.45373e-18	
      6343.70000	     3.65295e-18	
      6345.60000	     2.97853e-18	
      6347.50000	     2.68132e-18	
      6349.40000	     2.25768e-18	
      6351.30000	     2.32541e-18	
      6353.20000	     3.57184e-18	
      6355.10000	     3.22047e-18	
      6357.00000	     3.84317e-18	
      6358.90000	     3.65061e-18	
      6360.80000	     3.00632e-18	
      6362.70000	     3.01396e-18	
      6364.60000	     3.16006e-18	
      6366.50000	     1.94288e-18	
      6368.40000	     2.95494e-18	
      6370.30000	     3.53648e-18	
      6372.20000	     2.60724e-18	
      6374.10000	     3.43083e-18	
      6376.00000	     4.59470e-18	
      6377.90000	     3.58200e-18	
      6379.80000	     2.28314e-18	
      6381.70000	     2.96239e-18	
      6383.60000	     3.25593e-18	
      6385.50000	     2.99961e-18	
      6387.40000	     3.10481e-18	
      6389.30000	     3.28341e-18	
      6391.20000	     3.16422e-18	
      6393.10000	     3.72417e-18	
      6395.00000	     3.06350e-18	
      6396.90000	     3.82630e-18	
      6398.80000	     3.86244e-18	
      6400.70000	     4.21574e-18	
      6402.60000	     3.68721e-18	
      6404.50000	     2.49284e-18	
      6406.40000	     2.95837e-18	
      6408.30000	     2.60535e-18	
      6410.20000	     2.80877e-18	
      6412.10000	     3.34165e-18	
      6414.00000	     3.14014e-18	
      6415.90000	     3.24148e-18	
      6417.80000	     3.15962e-18	
      6419.70000	     3.37687e-18	
      6421.60000	     4.00104e-18	
      6423.50000	     3.18042e-18	
      6425.40000	     3.67787e-18	
      6427.30000	     3.43014e-18	
      6429.20000	     3.79073e-18	
      6431.10000	     3.64178e-18	
      6433.00000	     3.74548e-18	
      6434.90000	     3.42903e-18	
      6436.80000	     3.50408e-18	
      6438.70000	     3.79990e-18	
      6440.60000	     3.61590e-18	
      6442.50000	     3.18510e-18	
      6444.40000	     3.00264e-18	
      6446.30000	     3.81113e-18	
      6448.20000	     3.96355e-18	
      6450.10000	     3.65354e-18	
      6452.00000	     3.19302e-18	
      6453.90000	     3.01338e-18	
      6455.80000	     3.38645e-18	
      6457.70000	     3.41766e-18	
      6459.60000	     3.32706e-18	
      6461.50000	     2.91489e-18	
      6463.40000	     2.80009e-18	
      6465.30000	     3.16672e-18	
      6467.20000	     3.43806e-18	
      6469.10000	     3.58686e-18	
      6471.00000	     3.93111e-18	
      6472.90000	     3.89077e-18	
      6474.80000	     3.38631e-18	
      6476.70000	     3.69022e-18	
      6478.60000	     3.92380e-18	
      6480.50000	     3.82562e-18	
      6482.40000	     4.01386e-18	
      6484.30000	     3.84033e-18	
      6486.20000	     3.39311e-18	
      6488.10000	     4.09708e-18	
      6490.00000	     4.73437e-18	
      6491.90000	     4.64935e-18	
      6493.80000	     4.15054e-18	
      6495.70000	     3.60967e-18	
      6497.60000	     4.27971e-18	
      6499.50000	     4.09523e-18	
      6501.40000	     4.03623e-18	
      6503.30000	     4.36700e-18	
      6505.20000	     4.56126e-18	
      6507.10000	     4.85899e-18	
      6509.00000	     5.69803e-18	
      6510.90000	     5.49881e-18	
      6512.80000	     4.95928e-18	
      6514.70000	     3.96586e-18	
      6516.60000	     5.26642e-18	
      6518.50000	     4.67995e-18	
      6520.40000	     4.61958e-18	
      6522.30000	     5.03405e-18	
      6524.20000	     6.37208e-18	
      6526.10000	     6.14902e-18	
      6528.00000	     4.98850e-18	
      6529.90000	     5.33946e-18	
      6531.80000	     5.51180e-18	
      6533.70000	     6.19732e-18	
      6535.60000	     5.56685e-18	
      6537.50000	     4.99619e-18	
      6539.40000	     5.66178e-18	
      6541.30000	     6.08645e-18	
      6543.20000	     5.87873e-18	
      6545.10000	     5.30947e-18	
      6547.00000	     5.62459e-18	
      6548.90000	     5.80092e-18	
      6550.80000	     5.17966e-18	
      6552.70000	     5.49414e-18	
      6554.60000	     6.38308e-18	
      6556.50000	     5.82171e-18	
      6558.40000	     7.68657e-18	
      6560.30000	     7.78650e-18	
      6562.20000	     6.39776e-18	
      6564.10000	     6.86831e-18	
      6566.00000	     7.95149e-18	
      6567.90000	     7.14086e-18	
      6569.80000	     6.31829e-18	
      6571.70000	     6.16642e-18	
      6573.60000	     5.75545e-18	
      6575.50000	     5.48079e-18	
      6577.40000	     5.30072e-18	
      6579.30000	     5.84168e-18	
      6581.20000	     5.35012e-18	
      6583.10000	     4.78099e-18	
      6585.00000	     5.66700e-18	
      6586.90000	     6.42890e-18	
      6588.80000	     5.48347e-18	
      6590.70000	     6.06814e-18	
      6592.60000	     5.77655e-18	
      6594.50000	     5.90333e-18	
      6596.40000	     6.26421e-18	
      6598.30000	     5.48748e-18	
      6600.20000	     6.46541e-18	
      6602.10000	     6.68292e-18	
      6604.00000	     6.21967e-18	
      6605.90000	     6.65649e-18	
      6607.80000	     6.11282e-18	
      6609.70000	     6.30500e-18	
      6611.60000	     6.05014e-18	
      6613.50000	     7.24938e-18	
      6615.40000	     6.71992e-18	
      6617.30000	     5.97259e-18	
      6619.20000	     6.19673e-18	
      6621.10000	     5.83528e-18	
      6623.00000	     6.21663e-18	
      6624.90000	     6.74196e-18	
      6626.80000	     5.60421e-18	
      6628.70000	     5.21360e-18	
      6630.60000	     6.62311e-18	
      6632.50000	     6.86335e-18	
      6634.40000	     6.49434e-18	
      6636.30000	     6.65876e-18	
      6638.20000	     6.78201e-18	
      6640.10000	     5.89994e-18	
      6642.00000	     7.19564e-18	
      6643.90000	     7.22225e-18	
      6645.80000	     7.43537e-18	
      6647.70000	     6.69636e-18	
      6649.60000	     6.55492e-18	
      6651.50000	     6.83550e-18	
      6653.40000	     6.51198e-18	
      6655.30000	     6.55241e-18	
      6657.20000	     7.07360e-18	
      6659.10000	     6.81914e-18	
      6661.00000	     7.40011e-18	
      6662.90000	     7.33152e-18	
      6664.80000	     7.46472e-18	
      6666.70000	     7.91791e-18	
      6668.60000	     7.94234e-18	
      6670.50000	     7.84706e-18	
      6672.40000	     7.68274e-18	
      6674.30000	     7.08159e-18	
      6676.20000	     7.03568e-18	
      6678.10000	     7.53418e-18	
      6680.00000	     6.81174e-18	
      6681.90000	     6.62398e-18	
      6683.80000	     7.36933e-18	
      6685.70000	     7.19715e-18	
      6687.60000	     7.50318e-18	
      6689.50000	     7.53726e-18	
      6691.40000	     7.61216e-18	
      6693.30000	     7.86720e-18	
      6695.20000	     7.27029e-18	
      6697.10000	     7.54504e-18	
      6699.00000	     7.27373e-18	
      6700.90000	     7.37151e-18	
      6702.80000	     7.02102e-18	
      6704.70000	     7.77412e-18	
      6706.60000	     7.48161e-18	
      6708.50000	     7.18769e-18	
      6710.40000	     6.70208e-18	
      6712.30000	     7.28987e-18	
      6714.20000	     7.29673e-18	
      6716.10000	     7.27167e-18	
      6718.00000	     7.72338e-18	
      6719.90000	     7.76631e-18	
      6721.80000	     7.24316e-18	
      6723.70000	     7.41608e-18	
      6725.60000	     7.31552e-18	
      6727.50000	     7.23412e-18	
      6729.40000	     8.04150e-18	
      6731.30000	     7.31925e-18	
      6733.20000	     6.56833e-18	
      6735.10000	     7.29831e-18	
      6737.00000	     7.64090e-18	
      6738.90000	     8.22737e-18	
      6740.80000	     7.74937e-18	
      6742.70000	     8.00421e-18	
      6744.60000	     7.99557e-18	
      6746.50000	     7.90501e-18	
      6748.40000	     7.78014e-18	
      6750.30000	     7.46135e-18	
      6752.20000	     8.38722e-18	
      6754.10000	     8.53334e-18	
      6756.00000	     8.35524e-18	
      6757.90000	     7.93912e-18	
      6759.80000	     7.33640e-18	
      6761.70000	     8.16869e-18	
      6763.60000	     8.26911e-18	
      6765.50000	     8.33311e-18	
      6767.40000	     8.51376e-18	
      6769.30000	     8.51017e-18	
      6771.20000	     8.19643e-18	
      6773.10000	     8.96127e-18	
      6775.00000	     8.18205e-18	
      6776.90000	     8.00739e-18	
      6778.80000	     8.27635e-18	
      6780.70000	     8.51787e-18	
      6782.60000	     7.49900e-18	
      6784.50000	     7.37030e-18	
      6786.40000	     7.72434e-18	
      6788.30000	     7.27218e-18	
      6790.20000	     7.67767e-18	
      6792.10000	     8.01599e-18	
      6794.00000	     6.78435e-18	
      6795.90000	     7.26442e-18	
      6797.80000	     8.34148e-18	
      6799.70000	     8.01247e-18	
      6801.60000	     7.14292e-18	
      6803.50000	     7.42987e-18	
      6805.40000	     8.78308e-18	
      6807.30000	     7.74969e-18	
      6809.20000	     7.29418e-18	
      6811.10000	     8.27368e-18	
      6813.00000	     7.52100e-18	
      6814.90000	     7.31704e-18	
      6816.80000	     6.97646e-18	
      6818.70000	     7.27340e-18	
      6820.60000	     7.92234e-18	
      6822.50000	     7.98339e-18	
      6824.40000	     7.26044e-18	
      6826.30000	     7.48087e-18	
      6828.20000	     7.02327e-18	
      6830.10000	     6.41848e-18	
      6832.00000	     7.58716e-18	
      6833.90000	     6.77485e-18	
      6835.80000	     6.81195e-18	
      6837.70000	     7.78669e-18	
      6839.60000	     7.40005e-18	
      6841.50000	     6.80073e-18	
      6843.40000	     7.63573e-18	
      6845.30000	     7.09096e-18	
      6847.20000	     6.12713e-18	
      6849.10000	     7.15798e-18	
      6851.00000	     6.47689e-18	
      6852.90000	     6.58108e-18	
      6854.80000	     7.33302e-18	
      6856.70000	     6.56721e-18	
      6858.60000	     6.87854e-18	
      6860.50000	     7.65222e-18	
      6862.40000	     7.72310e-18	
      6864.30000	     6.37231e-18	
      6866.20000	     5.74165e-18	
      6868.10000	     5.53009e-18	
      6870.00000	     5.13435e-18	
      6871.90000	     5.34623e-18	
      6873.80000	     5.74210e-18	
      6875.70000	     5.57428e-18	
      6877.60000	     6.19589e-18	
      6879.50000	     6.70461e-18	
      6881.40000	     6.31427e-18	
      6883.30000	     6.54440e-18	
      6885.20000	     6.60960e-18	
      6887.10000	     6.42157e-18	
      6889.00000	     6.29468e-18	
      6890.90000	     6.00529e-18	
      6892.80000	     6.05010e-18	
      6894.70000	     5.87809e-18	
      6896.60000	     5.83484e-18	
      6898.50000	     5.40428e-18	
      6900.40000	     5.26231e-18	
      6902.30000	     5.57158e-18	
      6904.20000	     6.31978e-18	
      6906.10000	     5.97316e-18	
      6908.00000	     6.77701e-18	
      6909.90000	     6.32796e-18	
      6911.80000	     6.51639e-18	
      6913.70000	     7.18619e-18	
      6915.60000	     6.88873e-18	
      6917.50000	     6.75327e-18	
      6919.40000	     5.98847e-18	
      6921.30000	     6.53257e-18	
      6923.20000	     7.29713e-18	
      6925.10000	     8.02755e-18	
      6927.00000	     7.49611e-18	
      6928.90000	     7.92728e-18	
      6930.80000	     7.72059e-18	
      6932.70000	     7.44174e-18	
      6934.60000	     7.94719e-18	
      6936.50000	     7.84554e-18	
      6938.40000	     7.65750e-18	
      6940.30000	     8.19098e-18	
      6942.20000	     8.78019e-18	
      6944.10000	     8.97230e-18	
      6946.00000	     7.87636e-18	
      6947.90000	     8.68574e-18	
      6949.80000	     9.21627e-18	
      6951.70000	     8.64015e-18	
      6953.60000	     8.48694e-18	
      6955.50000	     8.97497e-18	
      6957.40000	     8.45792e-18	
      6959.30000	     8.44730e-18	
      6961.20000	     8.91050e-18	
      6963.10000	     9.74485e-18	
      6965.00000	     8.72444e-18	
      6966.90000	     8.15427e-18	
      6968.80000	     8.22536e-18	
      6970.70000	     8.05369e-18	
      6972.60000	     7.77073e-18	
      6974.50000	     7.59381e-18	
      6976.40000	     8.28133e-18	
      6978.30000	     8.95638e-18	
      6980.20000	     9.00107e-18	
      6982.10000	     8.31449e-18	
      6984.00000	     8.46151e-18	
      6985.90000	     9.34012e-18	
      6987.80000	     8.31944e-18	
      6989.70000	     8.54870e-18	
      6991.60000	     9.08063e-18	
      6993.50000	     8.85824e-18	
      6995.40000	     8.04957e-18	
      6997.30000	     8.23323e-18	
      6999.20000	     8.71833e-18	
      7001.10000	     9.22883e-18	
      7003.00000	     9.57995e-18	
      7004.90000	     9.27891e-18	
      7006.80000	     9.12280e-18	
      7008.70000	     9.31922e-18	
      7010.60000	     8.68868e-18	
      7012.50000	     9.28897e-18	
      7014.40000	     9.32230e-18	
      7016.30000	     8.90560e-18	
      7018.20000	     1.00821e-17	
      7020.10000	     1.02596e-17	
      7022.00000	     9.94121e-18	
      7023.90000	     1.00714e-17	
      7025.80000	     1.05287e-17	
      7027.70000	     1.15244e-17	
      7029.60000	     1.10810e-17	
      7031.50000	     1.04920e-17	
      7033.40000	     1.12685e-17	
      7035.30000	     1.06640e-17	
      7037.20000	     1.14816e-17	
      7039.10000	     1.15143e-17	
      7041.00000	     1.13078e-17	
      7042.90000	     1.23513e-17	
      7044.80000	     1.25369e-17	
      7046.70000	     1.16436e-17	
      7048.60000	     1.13346e-17	
      7050.50000	     1.20647e-17	
      7052.40000	     1.33977e-17	
      7054.30000	     1.18451e-17	
      7056.20000	     1.15298e-17	
      7058.10000	     1.12869e-17	
      7060.00000	     1.09748e-17	
      7061.90000	     1.04480e-17	
      7063.80000	     1.14895e-17	
      7065.70000	     1.11630e-17	
      7067.60000	     1.11213e-17	
      7069.50000	     1.14202e-17	
      7071.40000	     1.09498e-17	
      7073.30000	     1.12116e-17	
      7075.20000	     1.20749e-17	
      7077.10000	     1.17421e-17	
      7079.00000	     1.23859e-17	
      7080.90000	     1.16747e-17	
      7082.80000	     1.22729e-17	
      7084.70000	     1.17019e-17	
      7086.60000	     1.16021e-17	
      7088.50000	     1.07139e-17	
      7090.40000	     1.13349e-17	
      7092.30000	     1.13075e-17	
      7094.20000	     1.12333e-17	
      7096.10000	     1.11164e-17	
      7098.00000	     1.11739e-17	
      7099.90000	     1.09037e-17	
      7101.80000	     1.08455e-17	
      7103.70000	     1.14592e-17	
      7105.60000	     1.11887e-17	
      7107.50000	     1.12904e-17	
      7109.40000	     1.16682e-17	
      7111.30000	     1.17581e-17	
      7113.20000	     1.10239e-17	
      7115.10000	     1.10931e-17	
      7117.00000	     1.15089e-17	
      7118.90000	     1.15420e-17	
      7120.80000	     1.18801e-17	
      7122.70000	     1.17838e-17	
      7124.60000	     1.21474e-17	
      7126.50000	     1.24526e-17	
      7128.40000	     1.14196e-17	
      7130.30000	     1.14387e-17	
      7132.20000	     1.24119e-17	
      7134.10000	     1.17337e-17	
      7136.00000	     1.16778e-17	
      7137.90000	     1.15764e-17	
      7139.80000	     1.18024e-17	
      7141.70000	     1.12240e-17	
      7143.60000	     1.30273e-17	
      7145.50000	     1.28969e-17	
      7147.40000	     1.31863e-17	
      7149.30000	     1.25888e-17	
      7151.20000	     1.22357e-17	
      7153.10000	     1.23744e-17	
      7155.00000	     1.27602e-17	
      7156.90000	     1.28106e-17	
      7158.80000	     1.31841e-17	
      7160.70000	     1.26069e-17	
      7162.60000	     1.24277e-17	
      7164.50000	     1.30099e-17	
      7166.40000	     1.35321e-17	
      7168.30000	     1.37247e-17	
      7170.20000	     1.36101e-17	
      7172.10000	     1.30529e-17	
      7174.00000	     1.25793e-17	
      7175.90000	     1.33743e-17	
      7177.80000	     1.32616e-17	
      7179.70000	     1.35773e-17	
      7181.60000	     1.37559e-17	
      7183.50000	     1.44094e-17	
      7185.40000	     1.40899e-17	
      7187.30000	     1.49367e-17	
      7189.20000	     1.53198e-17	
      7191.10000	     1.42488e-17	
      7193.00000	     1.48703e-17	
      7194.90000	     1.35573e-17	
      7196.80000	     1.36707e-17	
      7198.70000	     1.42986e-17	
      7200.60000	     1.37706e-17	
      7202.50000	     1.39332e-17	
      7204.40000	     1.42165e-17	
      7206.30000	     1.45138e-17	
      7208.20000	     1.47478e-17	
      7210.10000	     1.46824e-17	
      7212.00000	     1.44660e-17	
      7213.90000	     1.43130e-17	
      7215.80000	     1.49262e-17	
      7217.70000	     1.40289e-17	
      7219.60000	     1.51123e-17	
      7221.50000	     1.43846e-17	
      7223.40000	     1.42530e-17	
      7225.30000	     1.42251e-17	
      7227.20000	     1.44714e-17	
      7229.10000	     1.50621e-17	
      7231.00000	     1.56913e-17	
      7232.90000	     1.51734e-17	
      7234.80000	     1.44816e-17	
      7236.70000	     1.44749e-17	
      7238.60000	     1.48430e-17	
      7240.50000	     1.53161e-17	
      7242.40000	     1.65009e-17	
      7244.30000	     1.60135e-17	
      7246.20000	     1.65593e-17	
      7248.10000	     1.67805e-17	
      7250.00000	     1.58209e-17	
      7251.90000	     1.73196e-17	
      7253.80000	     1.75492e-17	
      7255.70000	     1.69714e-17	
      7257.60000	     1.63694e-17	
      7259.50000	     1.70421e-17	
      7261.40000	     1.76658e-17	
      7263.30000	     1.68392e-17	
      7265.20000	     1.72144e-17	
      7267.10000	     1.67368e-17	
      7269.00000	     1.60208e-17	
      7270.90000	     1.67949e-17	
      7272.80000	     1.68366e-17	
      7274.70000	     1.71045e-17	
      7276.60000	     1.63102e-17	
      7278.50000	     1.53352e-17	
      7280.40000	     1.70063e-17	
      7282.30000	     1.82744e-17	
      7284.20000	     1.77187e-17	
      7286.10000	     1.74580e-17	
      7288.00000	     1.70660e-17	
      7289.90000	     1.74522e-17	
      7291.80000	     1.74175e-17	
      7293.70000	     1.86159e-17	
      7295.60000	     1.90576e-17	
      7297.50000	     1.77912e-17	
      7299.40000	     1.88953e-17	
      7301.30000	     1.94978e-17	
      7303.20000	     1.89353e-17	
      7305.10000	     1.90130e-17	
      7307.00000	     1.86175e-17	
      7308.90000	     1.82461e-17	
      7310.80000	     1.81739e-17	
      7312.70000	     1.85363e-17	
      7314.60000	     1.83043e-17	
      7316.50000	     1.94878e-17	
      7318.40000	     1.98078e-17	
      7320.30000	     2.05058e-17	
      7322.20000	     1.83280e-17	
      7324.10000	     1.89570e-17	
      7326.00000	     1.88561e-17	
      7327.90000	     1.90808e-17	
      7329.80000	     1.87464e-17	
      7331.70000	     1.88455e-17	
      7333.60000	     1.91637e-17	
      7335.50000	     1.92350e-17	
      7337.40000	     1.99298e-17	
      7339.30000	     1.93829e-17	
      7341.20000	     1.88765e-17	
      7343.10000	     1.96532e-17	
      7345.00000	     1.80707e-17	
      7346.90000	     1.93542e-17	
      7348.80000	     2.01398e-17	
      7350.70000	     2.01090e-17	
      7352.60000	     1.86522e-17	
      7354.50000	     1.81767e-17	
      7356.40000	     1.87749e-17	
      7358.30000	     1.86062e-17	
      7360.20000	     1.79747e-17	
      7362.10000	     1.95277e-17	
      7364.00000	     2.03136e-17	
      7365.90000	     1.96437e-17	
      7367.80000	     1.93331e-17	
      7369.70000	     1.89184e-17	
      7371.60000	     2.00800e-17	
      7373.50000	     1.92391e-17	
      7375.40000	     1.88373e-17	
      7377.30000	     1.98987e-17	
      7379.20000	     2.00135e-17	
      7381.10000	     1.93377e-17	
      7383.00000	     1.85678e-17	
      7384.90000	     1.90700e-17	
      7386.80000	     2.00647e-17	
      7388.70000	     2.05308e-17	
      7390.60000	     1.93144e-17	
      7392.50000	     1.83788e-17	
      7394.40000	     1.72868e-17	
      7396.30000	     1.87323e-17	
      7398.20000	     1.85937e-17	
      7400.10000	     1.95610e-17	
      7402.00000	     1.91089e-17	
      7403.90000	     1.95881e-17	
      7405.80000	     1.84417e-17	
      7407.70000	     1.81497e-17	
      7409.60000	     1.82902e-17	
      7411.50000	     1.89372e-17	
      7413.40000	     1.86830e-17	
      7415.30000	     1.83274e-17	
      7417.20000	     1.74520e-17	
      7419.10000	     1.72746e-17	
      7421.00000	     1.81042e-17	
      7422.90000	     1.75263e-17	
      7424.80000	     1.89522e-17	
      7426.70000	     1.86409e-17	
      7428.60000	     1.81665e-17	
      7430.50000	     1.88065e-17	
      7432.40000	     1.74133e-17	
      7434.30000	     1.87176e-17	
      7436.20000	     1.91420e-17	
      7438.10000	     1.95069e-17	
      7440.00000	     1.87199e-17	
      7441.90000	     1.82795e-17	
      7443.80000	     1.87148e-17	
      7445.70000	     1.82035e-17	
      7447.60000	     1.75994e-17	
      7449.50000	     1.77596e-17	
      7451.40000	     1.73688e-17	
      7453.30000	     1.74022e-17	
      7455.20000	     1.77252e-17	
      7457.10000	     1.78430e-17	
      7459.00000	     1.75679e-17	
      7460.90000	     1.78546e-17	
      7462.80000	     1.72578e-17	
      7464.70000	     1.78090e-17	
      7466.60000	     1.82723e-17	
      7468.50000	     1.77496e-17	
      7470.40000	     1.78650e-17	
      7472.30000	     1.79786e-17	
      7474.20000	     1.77868e-17	
      7476.10000	     1.73889e-17	
      7478.00000	     1.90370e-17	
      7479.90000	     1.73662e-17	
      7481.80000	     1.82854e-17	
      7483.70000	     1.77217e-17	
      7485.60000	     1.90029e-17	
      7487.50000	     1.87994e-17	
      7489.40000	     1.90348e-17	
      7491.30000	     1.89512e-17	
      7493.20000	     1.87456e-17	
      7495.10000	     1.81613e-17	
      7497.00000	     1.88717e-17	
      7498.90000	     1.80584e-17	
      7500.80000	     1.86760e-17	
      7502.70000	     1.87700e-17	
      7504.60000	     1.82998e-17	
      7506.50000	     1.87467e-17	
      7508.40000	     1.89500e-17	
      7510.30000	     1.86795e-17	
      7512.20000	     1.95683e-17	
      7514.10000	     1.91523e-17	
      7516.00000	     1.90618e-17	
      7517.90000	     1.98018e-17	
      7519.80000	     1.92571e-17	
      7521.70000	     1.89181e-17	
      7523.60000	     1.91192e-17	
      7525.50000	     1.87924e-17	
      7527.40000	     1.87611e-17	
      7529.30000	     1.91699e-17	
      7531.20000	     1.89033e-17	
      7533.10000	     1.87183e-17	
      7535.00000	     1.93938e-17	
      7536.90000	     1.91253e-17	
      7538.80000	     1.94764e-17	
      7540.70000	     2.00167e-17	
      7542.60000	     1.84349e-17	
      7544.50000	     1.82600e-17	
      7546.40000	     1.84057e-17	
      7548.30000	     1.84160e-17	
      7550.20000	     1.80452e-17	
      7552.10000	     1.88197e-17	
      7554.00000	     1.96105e-17	
      7555.90000	     1.99805e-17	
      7557.80000	     1.88700e-17	
      7559.70000	     1.92812e-17	
      7561.60000	     1.95900e-17	
      7563.50000	     1.91311e-17	
      7565.40000	     1.96061e-17	
      7567.30000	     1.98508e-17	
      7569.20000	     2.16663e-17	
      7571.10000	     1.96016e-17	
      7573.00000	     1.88791e-17	
      7574.90000	     1.88060e-17	
      7576.80000	     1.88870e-17	
      7578.70000	     1.90896e-17	
      7580.60000	     1.85413e-17	
      7582.50000	     1.91158e-17	
      7584.40000	     1.90190e-17	
      7586.30000	     1.78955e-17	
      7588.20000	     1.81929e-17	
      7590.10000	     1.89689e-17	
      7592.00000	     1.55737e-17	
      7593.90000	     1.31936e-17	
      7595.80000	     1.08572e-17	
      7597.70000	     9.15217e-18	
      7599.60000	     7.93106e-18	
      7601.50000	     5.61394e-18	
      7603.40000	     6.33498e-18	
      7605.30000	     5.44526e-18	
      7607.20000	     5.70202e-18	
      7609.10000	     6.95726e-18	
      7611.00000	     7.51910e-18	
      7612.90000	     9.25373e-18	
      7614.80000	     1.09462e-17	
      7616.70000	     1.29318e-17	
      7618.60000	     1.30935e-17	
      7620.50000	     1.26271e-17	
      7622.40000	     1.04579e-17	
      7624.30000	     9.19878e-18	
      7626.20000	     8.72594e-18	
      7628.10000	     8.07523e-18	
      7630.00000	     8.42458e-18	
      7631.90000	     8.31721e-18	
      7633.80000	     7.63213e-18	
      7635.70000	     7.49086e-18	
      7637.60000	     7.26570e-18	
      7639.50000	     6.76829e-18	
      7641.40000	     6.91885e-18	
      7643.30000	     6.91689e-18	
      7645.20000	     6.63735e-18	
      7647.10000	     5.88698e-18	
      7649.00000	     5.27689e-18	
      7650.90000	     5.55391e-18	
      7652.80000	     4.94716e-18	
      7654.70000	     4.68935e-18	
      7656.60000	     3.72500e-18	
      7658.50000	     3.53053e-18	
      7660.40000	     3.17236e-18	
      7662.30000	     2.69125e-18	
      7664.20000	     1.72568e-18	
      7666.10000	     2.46119e-18	
      7668.00000	     3.22428e-18	
      7669.90000	     3.57205e-18	
      7671.80000	     4.49396e-18	
      7673.70000	     5.88416e-18	
      7675.60000	     5.03594e-18	
      7677.50000	     5.43790e-18	
      7679.40000	     6.40385e-18	
      7681.30000	     6.61939e-18	
      7683.20000	     6.33015e-18	
      7685.10000	     6.71872e-18	
      7687.00000	     6.79608e-18	
      7688.90000	     5.91502e-18	
      7690.80000	     5.71289e-18	
      7692.70000	     5.29791e-18	
      7694.60000	     4.43696e-18	
      7696.50000	     4.05265e-18	
      7698.40000	     3.38865e-18	
      7700.30000	     3.51468e-18	
      7702.20000	     4.76152e-18	
      7704.10000	     4.72171e-18	
      7706.00000	     5.19310e-18	
      7707.90000	     6.46859e-18	
      7709.80000	     7.45417e-18	
      7711.70000	     7.47094e-18	
      7713.60000	     8.02309e-18	
      7715.50000	     1.03238e-17	
      7717.40000	     1.26252e-17	
      7719.30000	     1.41506e-17	
      7721.20000	     1.39022e-17	
      7723.10000	     1.23918e-17	
      7725.00000	     1.20450e-17	
      7726.90000	     1.35489e-17	
      7728.80000	     1.47291e-17	
      7730.70000	     1.50822e-17	
      7732.60000	     1.50321e-17	
      7734.50000	     1.53719e-17	
      7736.40000	     1.50946e-17	
      7738.30000	     1.59640e-17	
      7740.20000	     1.68655e-17	
      7742.10000	     1.64871e-17	
      7744.00000	     1.66389e-17	
      7745.90000	     1.52201e-17	
      7747.80000	     1.36221e-17	
      7749.70000	     1.49953e-17	
      7751.60000	     1.48000e-17	
      7753.50000	     1.46190e-17	
      7755.40000	     1.63250e-17	
      7757.30000	     1.80840e-17	
      7759.20000	     1.90993e-17	
      7761.10000	     1.81357e-17	
      7763.00000	     1.82230e-17	
      7764.90000	     1.82831e-17	
      7766.80000	     1.84777e-17	
      7768.70000	     1.96568e-17	
      7770.60000	     2.02100e-17	
      7772.50000	     2.08039e-17	
      7774.40000	     2.17228e-17	
      7776.30000	     1.98083e-17	
      7778.20000	     1.86210e-17	
      7780.10000	     1.95761e-17	
      7782.00000	     1.98583e-17	
      7783.90000	     1.78200e-17	
      7785.80000	     1.78886e-17	
      7787.70000	     1.84734e-17	
      7789.60000	     1.92090e-17	
      7791.50000	     1.89227e-17	
      7793.40000	     1.84405e-17	
      7795.30000	     1.46133e-17	
      7797.20000	     1.10636e-17	
      7799.10000	     1.27639e-17	
      7801.00000	     1.36575e-17	
      7802.90000	     1.66218e-17	
      7804.80000	     1.92732e-17	
      7806.70000	     1.97546e-17	
      7808.60000	     1.86494e-17	
      7810.50000	     1.95463e-17	
      7812.40000	     2.06056e-17	
      7814.30000	     2.06326e-17	
      7816.20000	     2.10134e-17	
      7818.10000	     2.03409e-17	
      7820.00000	     1.99619e-17	
      7821.90000	     1.94656e-17	
      7823.80000	     1.93202e-17	
      7825.70000	     2.05502e-17	
      7827.60000	     2.13326e-17	
      7829.50000	     2.03986e-17	
      7831.40000	     2.09794e-17	
      7833.30000	     2.25049e-17	
      7835.20000	     2.29066e-17	
      7837.10000	     2.35468e-17	
      7839.00000	     2.39412e-17	
      7840.90000	     2.23743e-17	
      7842.80000	     2.42455e-17	
      7844.70000	     2.50794e-17	
      7846.60000	     2.45015e-17	
      7848.50000	     2.26225e-17	
      7850.40000	     2.32711e-17	
      7852.30000	     2.30928e-17	
      7854.20000	     2.58391e-17	
      7856.10000	     2.55578e-17	
      7858.00000	     2.45780e-17	
      7859.90000	     2.40448e-17	
      7861.80000	     2.43553e-17	
      7863.70000	     2.42643e-17	
      7865.60000	     2.51526e-17	
      7867.50000	     2.34364e-17	
      7869.40000	     2.15654e-17	
      7871.30000	     2.25057e-17	
      7873.20000	     2.18480e-17	
      7875.10000	     2.35591e-17	
      7877.00000	     2.52365e-17	
      7878.90000	     2.30983e-17	
      7880.80000	     2.48284e-17	
      7882.70000	     2.46486e-17	
      7884.60000	     2.35996e-17	
      7886.50000	     2.27765e-17	
      7888.40000	     2.31734e-17	
      7890.30000	     2.47571e-17	
      7892.20000	     2.43479e-17	
      7894.10000	     2.63195e-17	
      7896.00000	     2.37174e-17	
      7897.90000	     2.33696e-17	
      7899.80000	     2.43540e-17	
      7901.70000	     2.36795e-17	
      7903.60000	     2.38638e-17	
      7905.50000	     2.29362e-17	
      7907.40000	     2.23118e-17	
      7909.30000	     2.32047e-17	
      7911.20000	     2.05460e-17	
      7913.10000	     1.96419e-17	
      7915.00000	     2.13010e-17	
      7916.90000	     2.36555e-17	
      7918.80000	     2.17838e-17	
      7920.70000	     2.05109e-17	
      7922.60000	     2.09066e-17	
      7924.50000	     2.13381e-17	
      7926.40000	     2.26949e-17	
      7928.30000	     2.47702e-17	
      7930.20000	     2.61241e-17	
      7932.10000	     2.61584e-17	
      7934.00000	     2.55053e-17	
      7935.90000	     2.35073e-17	
      7937.80000	     2.29711e-17	
      7939.70000	     2.28743e-17	
      7941.60000	     2.20852e-17	
      7943.50000	     1.89265e-17	
      7945.40000	     1.64462e-17	
      7947.30000	     1.70008e-17	
      7949.20000	     1.94647e-17	
      7951.10000	     2.23252e-17	
      7953.00000	     2.37907e-17	
      7954.90000	     2.53098e-17	
      7956.80000	     2.60633e-17	
      7958.70000	     2.48425e-17	
      7960.60000	     2.52898e-17	
      7962.50000	     2.64937e-17	
      7964.40000	     2.72871e-17	
      7966.30000	     2.72712e-17	
      7968.20000	     2.82752e-17	
      7970.10000	     2.78267e-17	
      7972.00000	     2.53614e-17	
      7973.90000	     2.51591e-17	
      7975.80000	     2.65784e-17	
      7977.70000	     2.61513e-17	
      7979.60000	     2.43868e-17	
      7981.50000	     2.36828e-17	
      7983.40000	     2.46863e-17	
      7985.30000	     2.50425e-17	
      7987.20000	     2.45714e-17	
      7989.10000	     2.45080e-17	
      7991.00000	     2.71565e-17	
      7992.90000	     2.65007e-17	
      7994.80000	     2.59290e-17	
      7996.70000	     2.56098e-17	
      7998.60000	     2.64813e-17	
      8000.50000	     2.64999e-17	
      8002.40000	     2.52138e-17	
      8004.30000	     2.62063e-17	
      8006.20000	     2.74881e-17	
      8008.10000	     2.79580e-17	
      8010.00000	     2.82746e-17	
      8011.90000	     2.92230e-17	
      8013.80000	     2.92917e-17	
      8015.70000	     3.03867e-17	
      8017.60000	     3.05232e-17	
      8019.50000	     2.95750e-17	
      8021.40000	     2.77552e-17	
      8023.30000	     2.73459e-17	
      8025.20000	     3.00156e-17	
      8027.10000	     3.04071e-17	
      8029.00000	     3.02926e-17	
      8030.90000	     3.01092e-17	
      8032.80000	     3.01597e-17	
      8034.70000	     3.05620e-17	
      8036.60000	     3.05746e-17	
      8038.50000	     2.99295e-17	
      8040.40000	     3.05024e-17	
      8042.30000	     3.21576e-17	
      8044.20000	     3.17754e-17	
      8046.10000	     3.11263e-17	
      8048.00000	     3.14313e-17	
      8049.90000	     3.24199e-17	
      8051.80000	     3.36574e-17	
      8053.70000	     3.33632e-17	
      8055.60000	     3.30607e-17	
      8057.50000	     3.33925e-17	
      8059.40000	     3.29972e-17	
      8061.30000	     3.40177e-17	
      8063.20000	     3.50942e-17	
      8065.10000	     3.45811e-17	
      8067.00000	     3.45643e-17	
      8068.90000	     3.49291e-17	
      8070.80000	     3.47540e-17	
      8072.70000	     3.57829e-17	
      8074.60000	     3.62252e-17	
      8076.50000	     3.63716e-17	
      8078.40000	     3.67149e-17	
      8080.30000	     3.62835e-17	
      8082.20000	     3.64899e-17	
      8084.10000	     3.69853e-17	
      8086.00000	     3.71917e-17	
      8087.90000	     3.74674e-17	
      8089.80000	     3.78786e-17	
      8091.70000	     3.87447e-17	
      8093.60000	     3.83414e-17	
      8095.50000	     3.72311e-17	
      8097.40000	     3.88995e-17	
      8099.30000	     3.90495e-17	
      8101.20000	     4.02249e-17	
      8103.10000	     3.90661e-17	
      8105.00000	     4.12732e-17	
      8106.90000	     4.16794e-17	
      8108.80000	     4.14965e-17	
      8110.70000	     4.21380e-17	
      8112.60000	     4.24893e-17	
      8114.50000	     4.12509e-17	
      8116.40000	     4.16717e-17	
      8118.30000	     4.40231e-17	
      8120.20000	     4.36831e-17	
      8122.10000	     4.41966e-17	
      8124.00000	     4.53691e-17	
      8125.90000	     4.58293e-17	
      8127.80000	     4.51431e-17	
      8129.70000	     4.47499e-17	
      8131.60000	     4.70876e-17	
      8133.50000	     4.72105e-17	
      8135.40000	     4.80873e-17	
      8137.30000	     4.65602e-17	
      8139.20000	     4.53922e-17	
      8141.10000	     4.43493e-17	
      8143.00000	     4.45790e-17	
      8144.90000	     4.56482e-17	
      8146.80000	     4.44864e-17	
      8148.70000	     4.49564e-17	
      8150.60000	     4.60375e-17	
      8152.50000	     4.47820e-17	
      8154.40000	     4.53778e-17	
      8156.30000	     4.58737e-17	
      8158.20000	     4.76705e-17	
      8160.10000	     4.76822e-17	
      8162.00000	     4.79981e-17	
      8163.90000	     4.92705e-17	
      8165.80000	     5.00123e-17	
      8167.70000	     5.03456e-17	
      8169.60000	     5.01567e-17	
      8171.50000	     4.91716e-17	
      8173.40000	     4.85697e-17	
      8175.30000	     4.77661e-17	
      8177.20000	     4.46179e-17	
      8179.10000	     3.74677e-17	
      8181.00000	     3.50920e-17	
      8182.90000	     3.83564e-17	
      8184.80000	     4.16142e-17	
      8186.70000	     4.24824e-17	
      8188.60000	     4.17221e-17	
      8190.50000	     3.77638e-17	
      8192.40000	     3.19928e-17	
      8194.30000	     3.21458e-17	
      8196.20000	     3.53817e-17	
      8198.10000	     4.02582e-17	
      8200.00000	     4.52804e-17	
      8201.90000	     4.52676e-17	
      8203.80000	     4.48782e-17	
      8205.70000	     4.64644e-17	
      8207.60000	     4.69752e-17	
      8209.50000	     4.72101e-17	
      8211.40000	     4.78826e-17	
      8213.30000	     4.86349e-17	
      8215.20000	     4.77145e-17	
      8217.10000	     4.87710e-17	
      8219.00000	     4.94945e-17	
      8220.90000	     5.14999e-17	
      8222.80000	     5.29438e-17	
      8224.70000	     5.21981e-17	
      8226.60000	     5.16903e-17	
      8228.50000	     5.26957e-17	
      8230.40000	     5.26070e-17	
      8232.30000	     5.25718e-17	
      8234.20000	     5.26572e-17	
      8236.10000	     5.21927e-17	
      8238.00000	     5.19321e-17	
      8239.90000	     5.21467e-17	
      8241.80000	     5.12661e-17	
      8243.70000	     5.26996e-17	
      8245.60000	     5.30469e-17	
      8247.50000	     5.39454e-17	
      8249.40000	     5.49061e-17	
      8251.30000	     5.16596e-17	
      8253.20000	     5.23516e-17	
      8255.10000	     5.21479e-17	
      8257.00000	     5.39673e-17	
      8258.90000	     5.41187e-17	
      8260.80000	     5.50358e-17	
      8262.70000	     5.47242e-17	
      8264.60000	     5.37141e-17	
      8266.50000	     5.26735e-17	
      8268.40000	     5.15893e-17	
      8270.30000	     5.10947e-17	
      8272.20000	     5.06245e-17	
      8274.10000	     5.10507e-17	
      8276.00000	     5.22401e-17	
      8277.90000	     5.18070e-17	
      8279.80000	     4.85339e-17	
      8281.70000	     4.72580e-17	
      8283.60000	     4.83658e-17	
      8285.50000	     4.74527e-17	
      8287.40000	     4.67025e-17	
      8289.30000	     4.42809e-17	
      8291.20000	     4.41229e-17	
      8293.10000	     4.70885e-17	
      8295.00000	     4.87015e-17	
      8296.90000	     5.02188e-17	
      8298.80000	     4.91980e-17	
      8300.70000	     5.04727e-17	
      8302.60000	     5.20965e-17	
      8304.50000	     5.17642e-17	
      8306.40000	     4.91367e-17	
      8308.30000	     4.79330e-17	
      8310.20000	     4.80636e-17	
      8312.10000	     4.79004e-17	
      8314.00000	     4.94672e-17	
      8315.90000	     5.20904e-17	
      8317.80000	     5.21756e-17	
      8319.70000	     5.25612e-17	
      8321.60000	     5.24864e-17	
      8323.50000	     5.01127e-17	
      8325.40000	     4.98658e-17	
      8327.30000	     5.15495e-17	
      8329.20000	     5.11526e-17	
      8331.10000	     5.04516e-17	
      8333.00000	     5.21339e-17	
      8334.90000	     5.19029e-17	
      8336.80000	     5.16785e-17	
      8338.70000	     5.19499e-17	
      8340.60000	     4.94629e-17	
      8342.50000	     4.62325e-17	
      8344.40000	     4.69840e-17	
      8346.30000	     4.61605e-17	
      8348.20000	     4.87752e-17	
      8350.10000	     5.17691e-17	
      8352.00000	     5.11515e-17	
      8353.90000	     5.09176e-17	
      8355.80000	     5.20179e-17	
      8357.70000	     5.31717e-17	
      8359.60000	     5.22436e-17	
      8361.50000	     5.41343e-17	
      8363.40000	     5.56932e-17	
      8365.30000	     5.64487e-17	
      8367.20000	     5.72384e-17	
      8369.10000	     5.67408e-17	
      8371.00000	     5.43223e-17	
      8372.90000	     5.44062e-17	
      8374.80000	     5.55973e-17	
      8376.70000	     5.59806e-17	
      8378.60000	     5.76009e-17	
      8380.50000	     5.80003e-17	
      8382.40000	     5.72437e-17	
      8384.30000	     5.40802e-17	
      8386.20000	     5.22916e-17	
      8388.10000	     5.14018e-17	
      8390.00000	     5.16109e-17	
      8391.90000	     5.35581e-17	
      8393.80000	     5.50760e-17	
      8395.70000	     5.43227e-17	
      8397.60000	     5.76860e-17	
      8399.50000	     5.17881e-17	
      8401.40000	     4.52941e-17	
      8403.30000	     5.19373e-17	
      8405.20000	     5.56841e-17	
      8407.10000	     5.64592e-17	
      8409.00000	     5.86376e-17	
      8410.90000	     6.20862e-17	
      8412.80000	     6.27472e-17	
      8414.70000	     6.47337e-17	
      8416.60000	     5.86740e-17	
      8418.50000	     5.70562e-17	
      8420.40000	     5.68626e-17	
      8422.30000	     5.89822e-17	
      8424.20000	     5.91945e-17	
      8426.10000	     5.85308e-17	
      8428.00000	     5.80565e-17	
      8429.90000	     5.89915e-17	
      8431.80000	     5.91159e-17	
      8433.70000	     5.50019e-17	
      8435.60000	     5.11297e-17	
      8437.50000	     5.16974e-17	
      8439.40000	     5.13839e-17	
      8441.30000	     4.83682e-17	
      8443.20000	     4.70592e-17	
      8445.10000	     4.64010e-17	
      8447.00000	     4.77119e-17	
      8448.90000	     4.37203e-17	
      8450.80000	     4.25700e-17	
      8452.70000	     4.23527e-17	
      8454.60000	     4.00700e-17	
      8456.50000	     4.07527e-17	
      8458.40000	     4.35122e-17	
      8460.30000	     4.45447e-17	
      8462.20000	     4.53211e-17	
      8464.10000	     4.34584e-17	
      8466.00000	     4.39275e-17	
      8467.90000	     4.54862e-17	
      8469.80000	     4.69176e-17	
      8471.70000	     4.62783e-17	
      8473.60000	     4.65575e-17	
      8475.50000	     4.57786e-17	
      8477.40000	     4.56618e-17	
      8479.30000	     4.38773e-17	
      8481.20000	     4.24921e-17	
      8483.10000	     4.42369e-17	
      8485.00000	     4.52694e-17	
      8486.90000	     4.42980e-17	
      8488.80000	     4.56312e-17	
      8490.70000	     4.69279e-17	
      8492.60000	     4.68970e-17	
      8494.50000	     4.65448e-17	
      8496.40000	     4.72656e-17	
      8498.30000	     4.68740e-17	
      8500.20000	     4.67373e-17	
      8502.10000	     4.74953e-17	
      8504.00000	     4.73868e-17	
      8505.90000	     4.81610e-17	
      8507.80000	     4.65173e-17	
      8509.70000	     4.36038e-17	
      8511.60000	     4.47221e-17	
      8513.50000	     4.58066e-17	
      8515.40000	     4.24830e-17	
      8517.30000	     3.78181e-17	
      8519.20000	     3.80436e-17	
      8521.10000	     4.08268e-17	
      8523.00000	     4.33965e-17	
      8524.90000	     4.67392e-17	
      8526.80000	     4.88346e-17	
      8528.70000	     4.94248e-17	
      8530.60000	     5.03505e-17	
      8532.50000	     5.05853e-17	
      8534.40000	     5.00385e-17	
      8536.30000	     5.14092e-17	
      8538.20000	     5.00720e-17	
      8540.10000	     5.10664e-17	
      8542.00000	     5.10201e-17	
      8543.90000	     4.87601e-17	
      8545.80000	     5.03555e-17	
      8547.70000	     5.19240e-17	
      8549.60000	     4.96513e-17	
      8551.50000	     5.13170e-17	
      8553.40000	     5.22208e-17	
      8555.30000	     5.36280e-17	
      8557.20000	     5.17046e-17	
      8559.10000	     4.94786e-17	
      8561.00000	     5.07391e-17	
      8562.90000	     5.36344e-17	
      8564.80000	     5.46894e-17	
      8566.70000	     5.32661e-17	
      8568.60000	     5.27151e-17	
      8570.50000	     5.23906e-17	
      8572.40000	     5.13738e-17	
      8574.30000	     5.20375e-17	
      8576.20000	     5.16731e-17	
      8578.10000	     5.23278e-17	
      8580.00000	     5.32708e-17	
      8581.90000	     5.22126e-17	
      8583.80000	     5.41244e-17	
      8585.70000	     5.54606e-17	
      8587.60000	     5.40255e-17	
      8589.50000	     5.48320e-17	
      8591.40000	     5.38774e-17	
      8593.30000	     5.23138e-17	
      8595.20000	     5.21541e-17	
      8597.10000	     4.90206e-17	
      8599.00000	     5.00638e-17	
      8600.90000	     5.26306e-17	
      8602.80000	     5.34401e-17	
      8604.70000	     5.17478e-17	
      8606.60000	     4.91192e-17	
      8608.50000	     4.53354e-17	
      8610.40000	     4.09374e-17	
      8612.30000	     3.74682e-17	
      8614.20000	     3.55881e-17	
      8616.10000	     3.81595e-17	
      8618.00000	     3.62928e-17	
      8619.90000	     3.74374e-17	
      8621.80000	     4.03653e-17	
      8623.70000	     3.85929e-17	
      8625.60000	     3.61405e-17	
      8627.50000	     3.58607e-17	
      8629.40000	     3.66042e-17	
      8631.30000	     3.35367e-17	
      8633.20000	     3.50397e-17	
      8635.10000	     3.38673e-17	
      8637.00000	     3.43911e-17	
      8638.90000	     3.66407e-17	
      8640.80000	     3.85728e-17	
      8642.70000	     3.85231e-17	
      8644.60000	     3.88922e-17	
      8646.50000	     4.00466e-17	
      8648.40000	     4.17258e-17	
      8650.30000	     4.24461e-17	
      8652.20000	     4.23788e-17	
      8654.10000	     4.15726e-17	
      8656.00000	     4.15693e-17	
      8657.90000	     4.06442e-17	
      8659.80000	     3.94881e-17	
      8661.70000	     4.10727e-17	
      8663.60000	     4.24462e-17	
      8665.50000	     4.20344e-17	
      8667.40000	     4.23109e-17	
      8669.30000	     4.12876e-17	
      8671.20000	     4.28391e-17	
      8673.10000	     4.43003e-17	
      8675.00000	     4.50399e-17	
      8676.90000	     4.45611e-17	
      8678.80000	     4.27221e-17	
      8680.70000	     4.16828e-17	
      8682.60000	     4.09278e-17	
      8684.50000	     4.34502e-17	
      8686.40000	     4.21079e-17	
      8688.30000	     3.68533e-17	
      8690.20000	     3.41883e-17	
      8692.10000	     3.32402e-17	
      8694.00000	     3.21055e-17	
      8695.90000	     3.24072e-17	
      8697.80000	     3.50909e-17	
      8699.70000	     3.71232e-17	
      8701.60000	     3.66324e-17	
      8703.50000	     3.51693e-17	
      8705.40000	     3.43141e-17	
      8707.30000	     3.22305e-17	
      8709.20000	     3.01829e-17	
      8711.10000	     3.12032e-17	
      8713.00000	     3.29485e-17	
      8714.90000	     3.15568e-17	
      8716.80000	     3.05973e-17	
      8718.70000	     3.20143e-17	
      8720.60000	     3.28873e-17	
      8722.50000	     3.45826e-17	
      8724.40000	     3.78061e-17	
      8726.30000	     3.99258e-17	
      8728.20000	     3.88513e-17	
      8730.10000	     3.57505e-17	
      8732.00000	     3.58380e-17	
      8733.90000	     3.68259e-17	
      8735.80000	     3.88295e-17	
      8737.70000	     3.97513e-17	
      8739.60000	     4.31574e-17	
      8741.50000	     4.40738e-17	
      8743.40000	     4.15651e-17	
      8745.30000	     4.08194e-17	
      8747.20000	     4.04538e-17	
      8749.10000	     4.24076e-17	
      8751.00000	     4.34303e-17	
      8752.90000	     4.43842e-17	
      8754.80000	     4.46711e-17	
      8756.70000	     4.42296e-17	
      8758.60000	     4.51222e-17	
      8760.50000	     4.63732e-17	
      8762.40000	     4.55638e-17	
      8764.30000	     4.55546e-17	
      8766.20000	     4.62368e-17	
      8768.10000	     5.27099e-17	
      8770.00000	     5.69866e-17	
      8771.90000	     5.72876e-17	
      8773.80000	     5.07438e-17	
      8775.70000	     5.04801e-17	
      8777.60000	     4.80491e-17	
      8779.50000	     4.66263e-17	
      8781.40000	     4.93178e-17	
      8783.30000	     4.66622e-17	
      8785.20000	     4.79325e-17	
      8787.10000	     4.70114e-17	
      8789.00000	     4.94533e-17	
      8790.90000	     5.35745e-17	
      8792.80000	     5.51957e-17	
      8794.70000	     5.41388e-17	
      8796.60000	     4.86894e-17	
      8798.50000	     4.55209e-17	
      8800.40000	     4.40405e-17	
      8802.30000	     4.44093e-17	
      8804.20000	     4.37799e-17	
      8806.10000	     4.58777e-17	
      8808.00000	     5.09800e-17	
      8809.90000	     5.46454e-17	
      8811.80000	     6.09412e-17	
      8813.70000	     6.26627e-17	
      8815.60000	     5.97499e-17	
      8817.50000	     5.66177e-17	
      8819.40000	     5.33716e-17	
      8821.30000	     4.92878e-17	
      8823.20000	     4.03628e-17	
      8825.10000	     4.47161e-17	
      8827.00000	     4.30647e-17	
      8828.90000	     4.57199e-17	
      8830.80000	     5.31483e-17	
      8832.70000	     5.57243e-17	
      8834.60000	     5.73176e-17	
      8836.50000	     5.77538e-17	
      8838.40000	     5.93454e-17	
      8840.30000	     5.74777e-17	
      8842.20000	     5.29097e-17	
      8844.10000	     4.70523e-17	
      8846.00000	     4.81667e-17	
      8847.90000	     5.63771e-17	
      8849.80000	     5.95272e-17	
      8851.70000	     6.04295e-17	
      8853.60000	     5.76158e-17	
      8855.50000	     5.33716e-17	
      8857.40000	     5.06287e-17	
      8859.30000	     4.92814e-17	
      8861.20000	     5.01550e-17	
      8863.10000	     5.30182e-17	
      8865.00000	     5.22753e-17	
      8866.90000	     4.58714e-17	
      8868.80000	     4.52926e-17	
      8870.70000	     4.36834e-17	
      8872.60000	     4.86052e-17	
      8874.50000	     5.42246e-17	
      8876.40000	     5.49571e-17	
      8878.30000	     5.33025e-17	
      8880.20000	     4.93507e-17	
      8882.10000	     5.01581e-17	
      8884.00000	     5.27481e-17	
      8885.90000	     5.29125e-17	
      8887.80000	     5.34801e-17	
      8889.70000	     5.40983e-17	
      8891.60000	     4.97199e-17	
      8893.50000	     4.72600e-17	
      8895.40000	     4.89872e-17	
      8897.30000	     5.34952e-17	
      8899.20000	     5.75738e-17	
      8901.10000	     5.94779e-17	
      8903.00000	     6.02884e-17	
      8904.90000	     5.59720e-17	
      8906.80000	     5.13822e-17	
      8908.70000	     5.22527e-17	
      8910.60000	     5.44348e-17	
      8912.50000	     5.75953e-17	
      8914.40000	     5.78514e-17	
      8916.30000	     5.66514e-17	
      8918.20000	     5.47249e-17	
      8920.10000	     5.08987e-17	
      8922.00000	     5.12629e-17	
      8923.90000	     5.32807e-17	
      8925.80000	     5.49469e-17	
      8927.70000	     6.01155e-17	
      8929.60000	     6.58224e-17	
      8931.50000	     6.60234e-17	
      8933.40000	     6.00221e-17	
      8935.30000	     5.59613e-17	
      8937.20000	     5.33839e-17	
      8939.10000	     4.91746e-17	
      8941.00000	     4.68475e-17	
      8942.90000	     4.95802e-17	
      8944.80000	     5.57805e-17	
      8946.70000	     5.87636e-17	
      8948.60000	     5.60303e-17	
      8950.50000	     5.78288e-17	
      8952.40000	     6.26204e-17	
      8954.30000	     6.63496e-17	
      8956.20000	     6.84745e-17	
      8958.10000	     6.80815e-17	
      8960.00000	     6.08624e-17	
      8961.90000	     5.50210e-17	
      8963.80000	     5.65668e-17	
      8965.70000	     5.96334e-17	
      8967.60000	     6.18612e-17	
      8969.50000	     6.23993e-17	
      8971.40000	     6.40049e-17	
      8973.30000	     6.98939e-17	
      8975.20000	     6.64144e-17	
      8977.10000	     6.24899e-17	
      8979.00000	     6.42438e-17	
      8980.90000	     6.70648e-17	
      8982.80000	     7.35052e-17	
      8984.70000	     7.31774e-17	
      8986.60000	     6.87640e-17	
      8988.50000	     6.86132e-17	
      8990.40000	     6.74821e-17	
      8992.30000	     6.50024e-17	
      8994.20000	     6.29352e-17	
      8996.10000	     6.24838e-17	
      8998.00000	     6.57336e-17	
      8999.90000	     7.21293e-17	
      9001.80000	     7.70730e-17	
      9003.70000	     7.47148e-17	
      9005.60000	     7.04488e-17	
      9007.50000	     7.06582e-17	
      9009.40000	     7.28950e-17	
      9011.30000	     7.04738e-17	
      9013.20000	     7.19524e-17	
      9015.10000	     6.78591e-17	
      9017.00000	     6.48633e-17	
      9018.90000	     6.21897e-17	
      9020.80000	     6.05147e-17	
      9022.70000	     5.79364e-17	
      9024.60000	     6.01003e-17	
      9026.50000	     5.99999e-17	
      9028.40000	     6.37954e-17	
      9030.30000	     6.56135e-17	
      9032.20000	     7.26288e-17	
      9034.10000	     7.49651e-17	
      9036.00000	     7.44315e-17	
      9037.90000	     7.28361e-17	
      9039.80000	     6.98798e-17	
      9041.70000	     7.14975e-17	
      9043.60000	     7.58379e-17	
      9045.50000	     7.44309e-17	
      9047.40000	     7.08650e-17	
      9049.30000	     7.03982e-17	
      9051.20000	     6.72122e-17	
      9053.10000	     6.36573e-17	
      9055.00000	     6.27169e-17	
      9056.90000	     6.34006e-17	
      9058.80000	     6.15812e-17	
      9060.70000	     6.40326e-17	
      9062.60000	     6.30943e-17	
      9064.50000	     6.15565e-17	
      9066.40000	     6.44957e-17	
      9068.30000	     6.48050e-17	
      9070.20000	     6.42767e-17	
      9072.10000	     6.65196e-17	
      9074.00000	     7.06932e-17	
      9075.90000	     7.18551e-17	
      9077.80000	     7.28296e-17	
      9079.70000	     7.38852e-17	
      9081.60000	     7.38413e-17	
      9083.50000	     7.08958e-17	
      9085.40000	     7.08447e-17	
      9087.30000	     7.31131e-17	
      9089.20000	     7.59475e-17	
      9091.10000	     7.54818e-17	
      9093.00000	     7.56841e-17	
      9094.90000	     7.67851e-17	
      9096.80000	     7.63220e-17	
      9098.70000	     7.61823e-17	
      9100.60000	     7.27439e-17	
      9102.50000	     7.29774e-17	
      9104.40000	     7.27002e-17	
      9106.30000	     7.80399e-17	
      9108.20000	     8.02159e-17	
      9110.10000	     7.83728e-17	
      9112.00000	     7.74979e-17	
      9113.90000	     7.96917e-17	
      9115.80000	     8.26566e-17	
      9117.70000	     8.28022e-17	
      9119.60000	     8.09089e-17	
      9121.50000	     8.10056e-17	
      9123.40000	     8.16322e-17	
      9125.30000	     8.13332e-17	
      9127.20000	     8.13995e-17	
      9129.10000	     8.37240e-17	
      9131.00000	     8.63064e-17	
      9132.90000	     8.44415e-17	
      9134.80000	     7.81786e-17	
      9136.70000	     7.42438e-17	
      9138.60000	     7.51063e-17	
      9140.50000	     7.79502e-17	
      9142.40000	     8.11327e-17	
      9144.30000	     8.25135e-17	
      9146.20000	     7.85945e-17	
      9148.10000	     7.95791e-17	
      9150.00000	     8.60221e-17	
      9151.90000	     8.88741e-17	
      9153.80000	     9.16348e-17	
      9155.70000	     9.76942e-17	
      9157.60000	     9.31515e-17	
      9159.50000	     8.66553e-17	
      9161.40000	     9.07265e-17	
      9163.30000	     9.00931e-17	
      9165.20000	     9.07055e-17	
      9167.10000	     8.91878e-17	
      9169.00000	     8.54747e-17	
      9170.90000	     8.52078e-17	
      9172.80000	     8.51063e-17	
      9174.70000	     8.34617e-17	
      9176.60000	     8.58703e-17	
      9178.50000	     8.83560e-17	
      9180.40000	     8.52595e-17	
      9182.30000	     8.76444e-17	
      9184.20000	     9.47166e-17	
      9186.10000	     9.90392e-17	
      9188.00000	     9.91629e-17	
      9189.90000	     9.31818e-17	
      9191.80000	     9.49672e-17	
      9193.70000	     9.59700e-17	
      9195.60000	     9.44679e-17	
      9197.50000	     9.93729e-17	
      9199.40000	     1.00100e-16	
      9201.30000	     9.71035e-17	
      9203.20000	     9.21055e-17	
      9205.10000	     8.57230e-17	
      9207.00000	     8.37274e-17	
      9208.90000	     8.29415e-17	
      9210.80000	     8.81577e-17	
      9212.70000	     8.98151e-17	
      9214.60000	     8.97625e-17	
      9216.50000	     8.97191e-17	
      9218.40000	     8.91623e-17	
      9220.30000	     8.49505e-17	
      9222.20000	     8.41936e-17	
      9224.10000	     8.62601e-17	
      9226.00000	     8.51958e-17	
      9227.90000	     8.48566e-17	
      9229.80000	     8.43772e-17	
      9231.70000	     8.31501e-17	
      9233.60000	     8.13895e-17	
      9235.50000	     8.56876e-17	
      9237.40000	     8.92095e-17	
      9239.30000	     9.12262e-17	
      9241.20000	     9.05143e-17	
      9243.10000	     8.60739e-17	
      9245.00000	     8.04424e-17	
      9246.90000	     7.94829e-17	
      9248.80000	     8.21864e-17	
      9250.70000	     8.33884e-17	
      9252.60000	     8.69705e-17	
      9254.50000	     9.36754e-17	
      9256.40000	     9.39230e-17	
      9258.30000	     8.76392e-17	
      9260.20000	     8.67499e-17	
      9262.10000	     8.99877e-17	
      9264.00000	     9.29952e-17	
      9265.90000	     9.12189e-17	
      9267.80000	     9.05456e-17	
      9269.70000	     8.88285e-17	
      9271.60000	     8.52842e-17	
      9273.50000	     8.11763e-17	
      9275.40000	     7.97747e-17	
      9277.30000	     8.11783e-17	
      9279.20000	     8.25093e-17	
      9281.10000	     8.64033e-17	
      9283.00000	     8.90551e-17	
      9284.90000	     8.71331e-17	
      9286.80000	     8.62687e-17	
      9288.70000	     8.92904e-17	
      9290.60000	     8.93662e-17	
      9292.50000	     8.92525e-17	
      9294.40000	     8.52429e-17	
      9296.30000	     8.54028e-17	
      9298.20000	     8.44844e-17	
      9300.10000	     8.41868e-17	
      9302.00000	     8.48625e-17	
      9303.90000	     9.41354e-17	
      9305.80000	     9.07895e-17	
      9307.70000	     9.66122e-17	
      9309.60000	     1.03726e-16	
      9311.50000	     9.72127e-17	
      9313.40000	     9.46701e-17	
      9315.30000	     9.50183e-17	
      9317.20000	     8.99262e-17	
      9319.10000	     8.79956e-17	
      9321.00000	     8.73836e-17	
      9322.90000	     9.50152e-17	
      9324.80000	     9.45145e-17	
      9326.70000	     9.26314e-17	
      9328.60000	     8.99759e-17	
      9330.50000	     8.72516e-17	
      9332.40000	     8.54360e-17	
      9334.30000	     8.69669e-17	
      9336.20000	     9.02033e-17	
      9338.10000	     8.46010e-17	
      9340.00000	     8.16516e-17	
      9341.90000	     7.87197e-17	
      9343.80000	     8.25770e-17	
      9345.70000	     8.81602e-17	
      9347.60000	     8.71787e-17	
      9349.50000	     8.83024e-17	
      9351.40000	     8.60128e-17	
      9353.30000	     8.65786e-17	
      9355.20000	     8.87445e-17	
      9357.10000	     9.34768e-17	
      9359.00000	     9.42065e-17	
      9360.90000	     9.47576e-17	
      9362.80000	     9.31939e-17	
      9364.70000	     8.60293e-17	
      9366.60000	     8.64227e-17	
      9368.50000	     8.51993e-17	
      9370.40000	     9.69104e-17	
      9372.30000	     1.10485e-16	
      9374.20000	     1.11502e-16	
      9376.10000	     1.12226e-16	
      9378.00000	     1.11472e-16	
      9379.90000	     9.87033e-17	
      9381.80000	     9.85720e-17	
      9383.70000	     9.56169e-17	
      9385.60000	     1.02107e-16	
      9387.50000	     1.07617e-16	
      9389.40000	     1.01430e-16	
      9391.30000	     9.57629e-17	
      9393.20000	     9.52089e-17	
      9395.10000	     9.38170e-17	
      9397.00000	     9.35802e-17	
      9398.90000	     9.26504e-17	
      9400.80000	     9.51166e-17	
      9402.70000	     9.35929e-17	
      9404.60000	     9.61164e-17	
      9406.50000	     1.01071e-16	
      9408.40000	     9.99727e-17	
      9410.30000	     9.90764e-17	
      9412.20000	     9.71419e-17	
      9414.10000	     9.80216e-17	
      9416.00000	     1.00917e-16	
      9417.90000	     1.01952e-16	
      9419.80000	     1.02042e-16	
      9421.70000	     1.00303e-16	
      9423.60000	     1.00647e-16	
      9425.50000	     1.00306e-16	
      9427.40000	     9.90056e-17	
      9429.30000	     9.74851e-17	
      9431.20000	     1.00025e-16	
      9433.10000	     1.00989e-16	
      9435.00000	     9.32337e-17	
      9436.90000	     9.17240e-17	
      9438.80000	     8.56107e-17	
      9440.70000	     8.44287e-17	
      9442.60000	     8.98635e-17	
      9444.50000	     9.70866e-17	
      9446.40000	     9.62838e-17	
      9448.30000	     1.00052e-16	
      9450.20000	     1.00502e-16	
      9452.10000	     1.02308e-16	
      9454.00000	     1.06765e-16	
      9455.90000	     1.02589e-16	
      9457.80000	     9.94288e-17	
      9459.70000	     1.07521e-16	
      9461.60000	     1.10418e-16	
      9463.50000	     1.09140e-16	
      9465.40000	     1.08581e-16	
      9467.30000	     1.01803e-16	
      9469.20000	     1.06353e-16	
      9471.10000	     1.17520e-16	
      9473.00000	     1.27132e-16	
      9474.90000	     1.25207e-16	
      9476.80000	     1.27513e-16	
      9478.70000	     1.28689e-16	
      9480.60000	     1.12154e-16	
      9482.50000	     1.12842e-16	
      9484.40000	     1.18589e-16	
      9486.30000	     1.19038e-16	
      9488.20000	     1.20094e-16	
      9490.10000	     1.17308e-16	
      9492.00000	     1.15835e-16	
      9493.90000	     1.13911e-16	
      9495.80000	     1.12624e-16	
      9497.70000	     1.08590e-16	
      9499.60000	     1.03166e-16	
      9501.50000	     1.06651e-16	
      9503.40000	     1.08239e-16	
      9505.30000	     1.05576e-16	
      9507.20000	     1.14881e-16	
      9509.10000	     1.15779e-16	
      9511.00000	     1.09370e-16	
      9512.90000	     1.05523e-16	
      9514.80000	     1.10233e-16	
      9516.70000	     1.07978e-16	
      9518.60000	     1.05609e-16	
      9520.50000	     1.16561e-16	
      9522.40000	     1.14262e-16	
      9524.30000	     1.19925e-16	
      9526.20000	     1.17630e-16	
      9528.10000	     1.14839e-16	
      9530.00000	     1.19259e-16	
      9531.90000	     1.17470e-16	
      9533.80000	     1.08884e-16	
      9535.70000	     1.08657e-16	
      9537.60000	     1.14459e-16	
      9539.50000	     1.13889e-16	
      9541.40000	     1.13789e-16	
      9543.30000	     1.17343e-16	
      9545.20000	     1.25795e-16	
      9547.10000	     1.22620e-16	
      9549.00000	     1.22890e-16	
      9550.90000	     1.25915e-16	
      9552.80000	     1.24554e-16	
      9554.70000	     1.19153e-16	
      9556.60000	     1.23455e-16	
      9558.50000	     1.21641e-16	
      9560.40000	     1.19132e-16	
      9562.30000	     1.19291e-16	
      9564.20000	     1.18849e-16	
      9566.10000	     1.23517e-16	
      9568.00000	     1.14061e-16	
      9569.90000	     1.10646e-16	
      9571.80000	     1.13140e-16	
      9573.70000	     1.11715e-16	
      9575.60000	     1.16360e-16	
      9577.50000	     1.15672e-16	
      9579.40000	     1.15330e-16	
      9581.30000	     1.16306e-16	
      9583.20000	     1.11619e-16	
      9585.10000	     1.07728e-16	
      9587.00000	     1.09434e-16	
      9588.90000	     1.08510e-16	
      9590.80000	     1.08672e-16	
      9592.70000	     1.05759e-16	
      9594.60000	     1.05794e-16	
      9596.50000	     1.07086e-16	
      9598.40000	     1.07458e-16	
      9600.30000	     1.10213e-16	
      9602.20000	     1.13306e-16	
      9604.10000	     1.12502e-16	
      9606.00000	     1.09459e-16	
      9607.90000	     1.08726e-16	
      9609.80000	     1.07255e-16	
      9611.70000	     1.09212e-16	
      9613.60000	     1.10143e-16	
      9615.50000	     1.12027e-16	
      9617.40000	     1.09697e-16	
      9619.30000	     1.10858e-16	
      9621.20000	     1.15133e-16	
      9623.10000	     1.13876e-16	
      9625.00000	     1.14833e-16	
      9626.90000	     1.11985e-16	
      9628.80000	     1.09140e-16	
      9630.70000	     1.09980e-16	
      9632.60000	     1.01506e-16	
      9634.50000	     9.23962e-17	
      9636.40000	     9.84950e-17	
      9638.30000	     9.87385e-17	
      9640.20000	     1.02609e-16	
      9642.10000	     1.07206e-16	
      9644.00000	     1.07347e-16	
      9645.90000	     1.09092e-16	
      9647.80000	     1.07274e-16	
      9649.70000	     1.04727e-16	
      9651.60000	     1.06258e-16	
      9653.50000	     1.12533e-16	
      9655.40000	     1.17251e-16	
      9657.30000	     1.23357e-16	
      9659.20000	     1.27191e-16	
      9661.10000	     1.27597e-16	
      9663.00000	     1.35954e-16	
      9664.90000	     1.29800e-16	
      9666.80000	     1.28946e-16	
      9668.70000	     1.32663e-16	
      9670.60000	     1.21220e-16	
      9672.50000	     1.19997e-16	
      9674.40000	     1.28435e-16	
      9676.30000	     1.31459e-16	
      9678.20000	     1.28373e-16	
      9680.10000	     1.21850e-16	
      9682.00000	     1.21679e-16	
      9683.90000	     1.24477e-16	
      9685.80000	     1.20909e-16	
      9687.70000	     1.24637e-16	
      9689.60000	     1.20087e-16	
      9691.50000	     1.29361e-16	
      9693.40000	     1.33130e-16	
      9695.30000	     1.27004e-16	
      9697.20000	     1.29362e-16	
      9699.10000	     1.26128e-16	
      9701.00000	     1.19772e-16	
      9702.90000	     1.25270e-16	
      9704.80000	     1.30344e-16	
      9706.70000	     1.31420e-16	
      9708.60000	     1.24012e-16	
      9710.50000	     1.29184e-16	
      9712.40000	     1.32637e-16	
      9714.30000	     1.44130e-16	
      9716.20000	     1.35986e-16	
      9718.10000	     1.32434e-16	
      9720.00000	     1.34905e-16	
      9721.90000	     1.38789e-16	
      9723.80000	     1.30532e-16	
      9725.70000	     1.33339e-16	
      9727.60000	     1.34769e-16	
      9729.50000	     1.39831e-16	
      9731.40000	     1.39111e-16	
      9733.30000	     1.36879e-16	
      9735.20000	     1.40101e-16	
      9737.10000	     1.44072e-16	
      9739.00000	     1.36757e-16	
      9740.90000	     1.35244e-16	
      9742.80000	     1.36500e-16	
      9744.70000	     1.36868e-16	
      9746.60000	     1.36291e-16	
      9748.50000	     1.39372e-16	
      9750.40000	     1.43711e-16	
      9752.30000	     1.47565e-16	
      9754.20000	     1.48589e-16	
      9756.10000	     1.44839e-16	
      9758.00000	     1.46505e-16	
      9759.90000	     1.45239e-16	
      9761.80000	     1.48084e-16	
      9763.70000	     1.47082e-16	
      9765.60000	     1.43122e-16	
      9767.50000	     1.40728e-16	
      9769.40000	     1.40869e-16	
      9771.30000	     1.38324e-16	
      9773.20000	     1.41130e-16	
      9775.10000	     1.44201e-16	
      9777.00000	     1.36384e-16	
      9778.90000	     1.41513e-16	
      9780.80000	     1.46828e-16	
      9782.70000	     1.34845e-16	
      9784.60000	     1.30099e-16	
      9786.50000	     1.25340e-16	
      9788.40000	     1.19094e-16	
      9790.30000	     1.27557e-16	
      9792.20000	     1.25486e-16	
      9794.10000	     1.21191e-16	
      9796.00000	     1.34032e-16	
      9797.90000	     1.34610e-16	
      9799.80000	     1.33352e-16	
      9801.70000	     1.38860e-16	
      9803.60000	     1.39533e-16	
      9805.50000	     1.39417e-16	
      9807.40000	     1.40095e-16	
      9809.30000	     1.42474e-16	
      9811.20000	     1.44497e-16	
      9813.10000	     1.40919e-16	
      9815.00000	     1.37956e-16	
      9816.90000	     1.38398e-16	
      9818.80000	     1.40011e-16	
      9820.70000	     1.48597e-16	
      9822.60000	     1.43174e-16	
      9824.50000	     1.43874e-16	
      9826.40000	     1.48251e-16	
      9828.30000	     1.41968e-16	
      9830.20000	     1.41754e-16	
      9832.10000	     1.38261e-16	
      9834.00000	     1.38659e-16	
      9835.90000	     1.46752e-16	
      9837.80000	     1.42686e-16	
      9839.70000	     1.46983e-16	
      9841.60000	     1.49385e-16	
      9843.50000	     1.53098e-16	
      9845.40000	     1.43481e-16	
      9847.30000	     1.33283e-16	
      9849.20000	     1.49357e-16	
      9851.10000	     1.51250e-16	
      9853.00000	     1.52026e-16	
      9854.90000	     1.45066e-16	
      9856.80000	     1.42788e-16	
      9858.70000	     1.48004e-16	
      9860.60000	     1.54491e-16	
      9862.50000	     1.49676e-16	
      9864.40000	     1.49864e-16	
      9866.30000	     1.50988e-16	
      9868.20000	     1.57838e-16	
      9870.10000	     1.67291e-16	
      9872.00000	     1.70053e-16	
      9873.90000	     1.64126e-16	
      9875.80000	     1.60155e-16	
      9877.70000	     1.60356e-16	
      9879.60000	     1.68187e-16	
      9881.50000	     1.67403e-16	
      9883.40000	     1.66240e-16	
      9885.30000	     1.63998e-16	
      9887.20000	     1.57930e-16	
      9889.10000	     1.47998e-16	
      9891.00000	     1.40634e-16	
      9892.90000	     1.20666e-16	
      9894.80000	     1.13075e-16	
      9896.70000	     9.88057e-17	
      9898.60000	     9.71051e-17	
      9900.50000	     9.68037e-17	
      9902.40000	     8.92835e-17	
      9904.30000	     8.65110e-17	
      9906.20000	     8.12060e-17	
      9908.10000	     6.69611e-17	
      9910.00000	     4.81710e-17	
      9911.90000	     4.72485e-17	
      9913.80000	     4.14690e-17	
      9915.70000	     3.65684e-17	
      9917.60000	     5.73479e-17	
      9919.50000	     6.73832e-17	
      9921.40000	     6.87450e-17	
      9923.30000	     8.08321e-17	
      9925.20000	     8.60254e-17	
      9927.10000	     7.99813e-17	
      9929.00000	     8.31524e-17	
      9930.90000	     9.25911e-17	
      9932.80000	     9.45899e-17	
      9934.70000	     9.72321e-17	
      9936.60000	     9.46497e-17	
      9938.50000	     1.00594e-16	
      9940.40000	     1.00076e-16	
      9942.30000	     9.48423e-17	
      9944.20000	     9.25974e-17	
      9946.10000	     1.00380e-16	
      9948.00000	     1.04938e-16	
      9949.90000	     1.09338e-16	
      9951.80000	     1.17482e-16	
      9953.70000	     1.24142e-16	
      9955.60000	     1.37448e-16	
      9957.50000	     1.62772e-16	
      9959.40000	     1.61290e-16	
      9961.30000	     1.72175e-16	
      9963.20000	     1.42927e-16	
      9965.10000	     1.28647e-16	
      9967.00000	     1.19713e-16	
      9968.90000	     1.09416e-16	
      9970.80000	     1.12887e-16	
      9972.70000	     1.28282e-16	
      9974.60000	     1.38243e-16	
      9976.50000	     1.23176e-16	
      9978.40000	     1.13050e-16	
      9980.30000	     1.08667e-16	
      9982.20000	     1.16188e-16	
      9984.10000	     1.24328e-16	
      9986.00000	     1.14610e-16	
      9987.90000	     1.09902e-16	
      9989.80000	     1.08289e-16	
      9991.70000	     1.10358e-16	
      9993.60000	     1.14870e-16	
      9995.50000	     1.21027e-16	
      9997.40000	     1.33479e-16	
      9999.30000	     1.38681e-16	
     10001.20000	     1.31973e-16	
     10003.10000	     1.28487e-16	
     10005.00000	     1.25788e-16	
     10006.90000	     1.47558e-16	
     10008.80000	     1.56821e-16	
     10010.70000	     1.59829e-16	
     10012.60000	     1.65737e-16	
     10014.50000	     1.57980e-16	
     10016.40000	     1.43463e-16	
     10018.30000	     1.42456e-16	
     10020.20000	     1.60682e-16	
     10022.10000	     1.67971e-16	
     10024.00000	     1.48647e-16	
     10025.90000	     1.42308e-16	
     10027.80000	     1.47773e-16	
     10029.70000	     1.40728e-16	
     10031.60000	     1.27268e-16	
     10033.50000	     1.21622e-16	
     10035.40000	     1.26406e-16	
     10037.30000	     1.26676e-16	
     10039.20000	     1.42770e-16	
     10041.10000	     1.48867e-16	
     10043.00000	     1.41578e-16	
     10044.90000	     1.35023e-16	
     10046.80000	     1.15719e-16	
     10048.70000	     1.04170e-16	
     10050.60000	     1.06909e-16	
     10052.50000	     1.06839e-16	
     10054.40000	     1.27672e-16	
     10056.30000	     1.31834e-16	
     10058.20000	     1.32868e-16	
     10060.10000	     1.38993e-16	
     10062.00000	     1.50910e-16	
     10063.90000	     1.39671e-16	
     10065.80000	     1.32167e-16	
     10067.70000	     1.26506e-16	
     10069.60000	     1.34159e-16	
     10071.50000	     1.42810e-16	
     10073.40000	     1.52553e-16	
     10075.30000	     1.57062e-16	
     10077.20000	     1.86734e-16	
     10079.10000	     2.07116e-16	
     10081.00000	     1.99948e-16	
     10082.90000	     1.74677e-16	
     10084.80000	     1.60020e-16	
     10086.70000	     1.48857e-16	
     10088.60000	     1.52704e-16	
     10090.50000	     1.66380e-16	
     10092.40000	     1.82731e-16	
     10094.30000	     2.00320e-16	
     10096.20000	     2.05484e-16	
     10098.10000	     1.76616e-16	
#time:0.025682
