# Keck LRIS spectra of late-M, L and T dwarfs
# spty = L5  (Spectral type)
#
#     WAVELENGTH	#            FLUX	
#     (ANGSTROM)	#   (ERG/CM2/S/A)	
################	#################	
      6300.00000	      2.94821e-18	
      6301.90000	      3.41764e-18	
      6303.80000	      4.94015e-18	
      6305.70000	      3.46770e-18	
      6307.60000	      2.52983e-18	
      6309.50000	      3.16807e-18	
      6311.40000	      1.96003e-18	
      6313.30000	      2.62427e-18	
      6315.20000	      4.33261e-18	
      6317.10000	      3.95111e-18	
      6319.00000	      2.08012e-18	
      6320.90000	      3.35396e-18	
      6322.80000	      4.25163e-18	
      6324.70000	      4.71187e-18	
      6326.60000	      3.92712e-18	
      6328.50000	      3.21132e-18	
      6330.40000	      3.56052e-18	
      6332.30000	      3.94072e-18	
      6334.20000	      3.36632e-18	
      6336.10000	      4.20211e-18	
      6338.00000	      4.66862e-18	
      6339.90000	      4.96069e-18	
      6341.80000	      5.58602e-18	
      6343.70000	      5.10258e-18	
      6345.60000	      4.88702e-18	
      6347.50000	      4.32872e-18	
      6349.40000	      3.94058e-18	
      6351.30000	      4.88382e-18	
      6353.20000	      3.98014e-18	
      6355.10000	      3.42860e-18	
      6357.00000	      4.98522e-18	
      6358.90000	      5.32521e-18	
      6360.80000	      5.30141e-18	
      6362.70000	      5.05183e-18	
      6364.60000	      4.16204e-18	
      6366.50000	      3.41201e-18	
      6368.40000	      3.65524e-18	
      6370.30000	      4.87621e-18	
      6372.20000	      6.61944e-18	
      6374.10000	      4.23814e-18	
      6376.00000	      3.75982e-18	
      6377.90000	      5.23683e-18	
      6379.80000	      4.65000e-18	
      6381.70000	      5.97548e-18	
      6383.60000	      5.52273e-18	
      6385.50000	      5.25202e-18	
      6387.40000	      6.24494e-18	
      6389.30000	      5.51837e-18	
      6391.20000	      4.30676e-18	
      6393.10000	      5.19101e-18	
      6395.00000	      6.06288e-18	
      6396.90000	      5.83096e-18	
      6398.80000	      5.11317e-18	
      6400.70000	      4.98852e-18	
      6402.60000	      5.46427e-18	
      6404.50000	      6.36886e-18	
      6406.40000	      5.73799e-18	
      6408.30000	      5.48121e-18	
      6410.20000	      6.18189e-18	
      6412.10000	      6.41913e-18	
      6414.00000	      6.27567e-18	
      6415.90000	      5.25132e-18	
      6417.80000	      5.69844e-18	
      6419.70000	      6.23829e-18	
      6421.60000	      6.14865e-18	
      6423.50000	      5.84702e-18	
      6425.40000	      6.02600e-18	
      6427.30000	      7.09460e-18	
      6429.20000	      5.99019e-18	
      6431.10000	      6.73709e-18	
      6433.00000	      6.62983e-18	
      6434.90000	      6.18593e-18	
      6436.80000	      5.73061e-18	
      6438.70000	      7.24836e-18	
      6440.60000	      6.14017e-18	
      6442.50000	      6.97992e-18	
      6444.40000	      5.78863e-18	
      6446.30000	      6.34249e-18	
      6448.20000	      5.75231e-18	
      6450.10000	      6.86005e-18	
      6452.00000	      6.24232e-18	
      6453.90000	      7.39699e-18	
      6455.80000	      6.78031e-18	
      6457.70000	      7.08206e-18	
      6459.60000	      7.50749e-18	
      6461.50000	      7.00817e-18	
      6463.40000	      7.83890e-18	
      6465.30000	      7.46356e-18	
      6467.20000	      5.71111e-18	
      6469.10000	      7.55454e-18	
      6471.00000	      7.65389e-18	
      6472.90000	      8.43666e-18	
      6474.80000	      8.30620e-18	
      6476.70000	      6.66974e-18	
      6478.60000	      7.63806e-18	
      6480.50000	      7.40089e-18	
      6482.40000	      7.84422e-18	
      6484.30000	      8.33062e-18	
      6486.20000	      8.45160e-18	
      6488.10000	      7.68515e-18	
      6490.00000	      8.47629e-18	
      6491.90000	      8.27702e-18	
      6493.80000	      7.24540e-18	
      6495.70000	      6.83292e-18	
      6497.60000	      8.21973e-18	
      6499.50000	      7.41810e-18	
      6501.40000	      7.12525e-18	
      6503.30000	      8.60041e-18	
      6505.20000	      8.53149e-18	
      6507.10000	      9.69984e-18	
      6509.00000	      9.39400e-18	
      6510.90000	      8.90090e-18	
      6512.80000	      7.89721e-18	
      6514.70000	      8.82197e-18	
      6516.60000	      9.86900e-18	
      6518.50000	      9.01471e-18	
      6520.40000	      8.76797e-18	
      6522.30000	      1.00802e-17	
      6524.20000	      1.11195e-17	
      6526.10000	      1.14133e-17	
      6528.00000	      1.03865e-17	
      6529.90000	      1.04781e-17	
      6531.80000	      1.14922e-17	
      6533.70000	      1.06363e-17	
      6535.60000	      9.95464e-18	
      6537.50000	      9.84287e-18	
      6539.40000	      1.13549e-17	
      6541.30000	      1.04485e-17	
      6543.20000	      1.04510e-17	
      6545.10000	      1.09767e-17	
      6547.00000	      1.15131e-17	
      6548.90000	      1.01029e-17	
      6550.80000	      9.79205e-18	
      6552.70000	      1.14015e-17	
      6554.60000	      1.10294e-17	
      6556.50000	      1.04695e-17	
      6558.40000	      1.04833e-17	
      6560.30000	      1.02576e-17	
      6562.20000	      1.19647e-17	
      6564.10000	      1.24613e-17	
      6566.00000	      1.29253e-17	
      6567.90000	      1.18035e-17	
      6569.80000	      1.17632e-17	
      6571.70000	      1.12758e-17	
      6573.60000	      1.19012e-17	
      6575.50000	      1.19973e-17	
      6577.40000	      1.25551e-17	
      6579.30000	      1.08920e-17	
      6581.20000	      1.16629e-17	
      6583.10000	      1.20040e-17	
      6585.00000	      1.14135e-17	
      6586.90000	      1.20653e-17	
      6588.80000	      1.23196e-17	
      6590.70000	      1.22580e-17	
      6592.60000	      1.18816e-17	
      6594.50000	      1.23434e-17	
      6596.40000	      1.20336e-17	
      6598.30000	      1.11413e-17	
      6600.20000	      1.22914e-17	
      6602.10000	      1.28543e-17	
      6604.00000	      1.24742e-17	
      6605.90000	      1.16588e-17	
      6607.80000	      1.23833e-17	
      6609.70000	      1.19440e-17	
      6611.60000	      1.36368e-17	
      6613.50000	      1.33724e-17	
      6615.40000	      1.30158e-17	
      6617.30000	      1.25010e-17	
      6619.20000	      1.41381e-17	
      6621.10000	      1.34572e-17	
      6623.00000	      1.32615e-17	
      6624.90000	      1.45510e-17	
      6626.80000	      1.40609e-17	
      6628.70000	      1.51245e-17	
      6630.60000	      1.51100e-17	
      6632.50000	      1.44294e-17	
      6634.40000	      1.40370e-17	
      6636.30000	      1.40066e-17	
      6638.20000	      1.36757e-17	
      6640.10000	      1.44758e-17	
      6642.00000	      1.53665e-17	
      6643.90000	      1.45581e-17	
      6645.80000	      1.40789e-17	
      6647.70000	      1.47748e-17	
      6649.60000	      1.55252e-17	
      6651.50000	      1.51671e-17	
      6653.40000	      1.50532e-17	
      6655.30000	      1.51184e-17	
      6657.20000	      1.53034e-17	
      6659.10000	      1.51760e-17	
      6661.00000	      1.47097e-17	
      6662.90000	      1.55736e-17	
      6664.80000	      1.51872e-17	
      6666.70000	      1.56104e-17	
      6668.60000	      1.42803e-17	
      6670.50000	      1.52535e-17	
      6672.40000	      1.54364e-17	
      6674.30000	      1.54605e-17	
      6676.20000	      1.59507e-17	
      6678.10000	      1.51645e-17	
      6680.00000	      1.62324e-17	
      6681.90000	      1.64026e-17	
      6683.80000	      1.58109e-17	
      6685.70000	      1.62223e-17	
      6687.60000	      1.68811e-17	
      6689.50000	      1.67390e-17	
      6691.40000	      1.64969e-17	
      6693.30000	      1.55750e-17	
      6695.20000	      1.60037e-17	
      6697.10000	      1.74354e-17	
      6699.00000	      1.68187e-17	
      6700.90000	      1.60781e-17	
      6702.80000	      1.43911e-17	
      6704.70000	      1.41596e-17	
      6706.60000	      1.43987e-17	
      6708.50000	      1.23135e-17	
      6710.40000	      1.21176e-17	
      6712.30000	      1.29376e-17	
      6714.20000	      1.54447e-17	
      6716.10000	      1.58067e-17	
      6718.00000	      1.72036e-17	
      6719.90000	      1.64583e-17	
      6721.80000	      1.73345e-17	
      6723.70000	      1.80460e-17	
      6725.60000	      1.79661e-17	
      6727.50000	      1.71220e-17	
      6729.40000	      1.75652e-17	
      6731.30000	      1.75214e-17	
      6733.20000	      1.80893e-17	
      6735.10000	      1.92533e-17	
      6737.00000	      1.82953e-17	
      6738.90000	      1.85177e-17	
      6740.80000	      1.79083e-17	
      6742.70000	      1.84386e-17	
      6744.60000	      1.99814e-17	
      6746.50000	      1.96743e-17	
      6748.40000	      1.93444e-17	
      6750.30000	      1.86850e-17	
      6752.20000	      1.79129e-17	
      6754.10000	      1.78106e-17	
      6756.00000	      1.96757e-17	
      6757.90000	      2.00052e-17	
      6759.80000	      2.06070e-17	
      6761.70000	      1.86069e-17	
      6763.60000	      1.80802e-17	
      6765.50000	      1.98864e-17	
      6767.40000	      2.01797e-17	
      6769.30000	      1.95613e-17	
      6771.20000	      1.86298e-17	
      6773.10000	      1.88110e-17	
      6775.00000	      1.90021e-17	
      6776.90000	      1.96565e-17	
      6778.80000	      1.93716e-17	
      6780.70000	      1.90139e-17	
      6782.60000	      1.95241e-17	
      6784.50000	      1.86021e-17	
      6786.40000	      1.79325e-17	
      6788.30000	      1.84960e-17	
      6790.20000	      1.94033e-17	
      6792.10000	      2.07803e-17	
      6794.00000	      1.93638e-17	
      6795.90000	      1.84134e-17	
      6797.80000	      1.83297e-17	
      6799.70000	      1.89429e-17	
      6801.60000	      1.77535e-17	
      6803.50000	      1.85285e-17	
      6805.40000	      1.93855e-17	
      6807.30000	      1.99521e-17	
      6809.20000	      1.85999e-17	
      6811.10000	      1.90344e-17	
      6813.00000	      1.94656e-17	
      6814.90000	      1.89101e-17	
      6816.80000	      1.87662e-17	
      6818.70000	      1.77336e-17	
      6820.60000	      1.82860e-17	
      6822.50000	      1.90129e-17	
      6824.40000	      1.77328e-17	
      6826.30000	      1.85605e-17	
      6828.20000	      1.89936e-17	
      6830.10000	      1.75094e-17	
      6832.00000	      1.88166e-17	
      6833.90000	      1.87653e-17	
      6835.80000	      1.84671e-17	
      6837.70000	      1.82978e-17	
      6839.60000	      1.78495e-17	
      6841.50000	      1.80594e-17	
      6843.40000	      1.78279e-17	
      6845.30000	      1.79291e-17	
      6847.20000	      1.83285e-17	
      6849.10000	      1.88655e-17	
      6851.00000	      1.86805e-17	
      6852.90000	      1.85101e-17	
      6854.80000	      1.79526e-17	
      6856.70000	      1.85742e-17	
      6858.60000	      1.77482e-17	
      6860.50000	      1.72908e-17	
      6862.40000	      1.54059e-17	
      6864.30000	      1.78528e-17	
      6866.20000	      1.57177e-17	
      6868.10000	      1.53082e-17	
      6870.00000	      1.37969e-17	
      6871.90000	      1.34956e-17	
      6873.80000	      1.36804e-17	
      6875.70000	      1.31922e-17	
      6877.60000	      1.37441e-17	
      6879.50000	      1.41773e-17	
      6881.40000	      1.53088e-17	
      6883.30000	      1.60849e-17	
      6885.20000	      1.56346e-17	
      6887.10000	      1.44488e-17	
      6889.00000	      1.37589e-17	
      6890.90000	      1.44701e-17	
      6892.80000	      1.45918e-17	
      6894.70000	      1.40721e-17	
      6896.60000	      1.38701e-17	
      6898.50000	      1.45452e-17	
      6900.40000	      1.37310e-17	
      6902.30000	      1.36642e-17	
      6904.20000	      1.35663e-17	
      6906.10000	      1.42777e-17	
      6908.00000	      1.36179e-17	
      6909.90000	      1.54219e-17	
      6911.80000	      1.42055e-17	
      6913.70000	      1.46786e-17	
      6915.60000	      1.48825e-17	
      6917.50000	      1.56098e-17	
      6919.40000	      1.63071e-17	
      6921.30000	      1.53728e-17	
      6923.20000	      1.42496e-17	
      6925.10000	      1.50564e-17	
      6927.00000	      1.84786e-17	
      6928.90000	      1.59700e-17	
      6930.80000	      1.52967e-17	
      6932.70000	      1.51867e-17	
      6934.60000	      1.68515e-17	
      6936.50000	      1.57251e-17	
      6938.40000	      1.54798e-17	
      6940.30000	      1.60587e-17	
      6942.20000	      1.74109e-17	
      6944.10000	      1.64978e-17	
      6946.00000	      1.68349e-17	
      6947.90000	      1.77552e-17	
      6949.80000	      1.86970e-17	
      6951.70000	      1.91491e-17	
      6953.60000	      1.74856e-17	
      6955.50000	      1.68559e-17	
      6957.40000	      1.70819e-17	
      6959.30000	      1.75606e-17	
      6961.20000	      1.90339e-17	
      6963.10000	      1.77093e-17	
      6965.00000	      1.77732e-17	
      6966.90000	      1.74431e-17	
      6968.80000	      1.81009e-17	
      6970.70000	      1.72513e-17	
      6972.60000	      1.71769e-17	
      6974.50000	      1.64028e-17	
      6976.40000	      1.79945e-17	
      6978.30000	      1.71685e-17	
      6980.20000	      1.77608e-17	
      6982.10000	      1.74340e-17	
      6984.00000	      1.86107e-17	
      6985.90000	      1.93989e-17	
      6987.80000	      1.82149e-17	
      6989.70000	      1.82902e-17	
      6991.60000	      1.73696e-17	
      6993.50000	      1.66624e-17	
      6995.40000	      1.68107e-17	
      6997.30000	      1.75660e-17	
      6999.20000	      1.69510e-17	
      7001.10000	      1.75365e-17	
      7003.00000	      1.85773e-17	
      7004.90000	      1.81396e-17	
      7006.80000	      1.88339e-17	
      7008.70000	      1.92554e-17	
      7010.60000	      1.79856e-17	
      7012.50000	      1.86666e-17	
      7014.40000	      1.92024e-17	
      7016.30000	      1.97205e-17	
      7018.20000	      2.03440e-17	
      7020.10000	      2.00893e-17	
      7022.00000	      1.95213e-17	
      7023.90000	      2.06104e-17	
      7025.80000	      1.99338e-17	
      7027.70000	      2.08934e-17	
      7029.60000	      2.05166e-17	
      7031.50000	      2.03139e-17	
      7033.40000	      2.16488e-17	
      7035.30000	      2.24329e-17	
      7037.20000	      2.20877e-17	
      7039.10000	      2.34450e-17	
      7041.00000	      2.34196e-17	
      7042.90000	      2.43210e-17	
      7044.80000	      2.37855e-17	
      7046.70000	      2.27050e-17	
      7048.60000	      2.32882e-17	
      7050.50000	      2.41828e-17	
      7052.40000	      2.34019e-17	
      7054.30000	      2.30798e-17	
      7056.20000	      2.43073e-17	
      7058.10000	      2.27583e-17	
      7060.00000	      2.23161e-17	
      7061.90000	      2.31803e-17	
      7063.80000	      2.30125e-17	
      7065.70000	      2.34188e-17	
      7067.60000	      2.44095e-17	
      7069.50000	      2.44031e-17	
      7071.40000	      2.37849e-17	
      7073.30000	      2.49382e-17	
      7075.20000	      2.40635e-17	
      7077.10000	      2.38115e-17	
      7079.00000	      2.32582e-17	
      7080.90000	      2.43448e-17	
      7082.80000	      2.54220e-17	
      7084.70000	      2.57592e-17	
      7086.60000	      2.43027e-17	
      7088.50000	      2.52699e-17	
      7090.40000	      2.45458e-17	
      7092.30000	      2.24375e-17	
      7094.20000	      2.36854e-17	
      7096.10000	      2.45452e-17	
      7098.00000	      2.52322e-17	
      7099.90000	      2.43869e-17	
      7101.80000	      2.39989e-17	
      7103.70000	      2.46378e-17	
      7105.60000	      2.54197e-17	
      7107.50000	      2.49693e-17	
      7109.40000	      2.38981e-17	
      7111.30000	      2.41046e-17	
      7113.20000	      2.51019e-17	
      7115.10000	      2.54597e-17	
      7117.00000	      2.52345e-17	
      7118.90000	      2.47463e-17	
      7120.80000	      2.56190e-17	
      7122.70000	      2.64430e-17	
      7124.60000	      2.57207e-17	
      7126.50000	      2.56804e-17	
      7128.40000	      2.55362e-17	
      7130.30000	      2.65436e-17	
      7132.20000	      2.69757e-17	
      7134.10000	      2.54012e-17	
      7136.00000	      2.59303e-17	
      7137.90000	      2.48447e-17	
      7139.80000	      2.43804e-17	
      7141.70000	      2.63348e-17	
      7143.60000	      2.62903e-17	
      7145.50000	      2.64029e-17	
      7147.40000	      2.62648e-17	
      7149.30000	      2.68309e-17	
      7151.20000	      2.62601e-17	
      7153.10000	      2.68080e-17	
      7155.00000	      2.70169e-17	
      7156.90000	      2.63364e-17	
      7158.80000	      2.68850e-17	
      7160.70000	      2.64306e-17	
      7162.60000	      2.59946e-17	
      7164.50000	      2.72238e-17	
      7166.40000	      2.75815e-17	
      7168.30000	      2.71094e-17	
      7170.20000	      2.62279e-17	
      7172.10000	      2.59507e-17	
      7174.00000	      2.68442e-17	
      7175.90000	      2.59963e-17	
      7177.80000	      2.66977e-17	
      7179.70000	      2.71339e-17	
      7181.60000	      2.59036e-17	
      7183.50000	      2.69134e-17	
      7185.40000	      2.71351e-17	
      7187.30000	      2.63242e-17	
      7189.20000	      2.66767e-17	
      7191.10000	      2.61742e-17	
      7193.00000	      2.60592e-17	
      7194.90000	      2.69373e-17	
      7196.80000	      2.69279e-17	
      7198.70000	      2.73603e-17	
      7200.60000	      2.80137e-17	
      7202.50000	      2.65884e-17	
      7204.40000	      2.78848e-17	
      7206.30000	      2.84589e-17	
      7208.20000	      2.77854e-17	
      7210.10000	      2.79351e-17	
      7212.00000	      2.90361e-17	
      7213.90000	      2.93160e-17	
      7215.80000	      2.91198e-17	
      7217.70000	      2.93604e-17	
      7219.60000	      2.95731e-17	
      7221.50000	      2.99028e-17	
      7223.40000	      2.97897e-17	
      7225.30000	      2.99245e-17	
      7227.20000	      2.94159e-17	
      7229.10000	      2.91187e-17	
      7231.00000	      2.84556e-17	
      7232.90000	      2.97882e-17	
      7234.80000	      2.90711e-17	
      7236.70000	      2.86696e-17	
      7238.60000	      2.90682e-17	
      7240.50000	      2.85398e-17	
      7242.40000	      2.76043e-17	
      7244.30000	      2.72428e-17	
      7246.20000	      2.97000e-17	
      7248.10000	      3.04835e-17	
      7250.00000	      3.08277e-17	
      7251.90000	      3.10707e-17	
      7253.80000	      3.08088e-17	
      7255.70000	      3.12320e-17	
      7257.60000	      3.19814e-17	
      7259.50000	      3.05476e-17	
      7261.40000	      3.05430e-17	
      7263.30000	      3.13300e-17	
      7265.20000	      3.14351e-17	
      7267.10000	      3.04021e-17	
      7269.00000	      2.88452e-17	
      7270.90000	      3.01817e-17	
      7272.80000	      2.87217e-17	
      7274.70000	      2.94191e-17	
      7276.60000	      3.08153e-17	
      7278.50000	      2.78600e-17	
      7280.40000	      2.79887e-17	
      7282.30000	      2.94789e-17	
      7284.20000	      3.12934e-17	
      7286.10000	      3.18054e-17	
      7288.00000	      3.30408e-17	
      7289.90000	      3.13868e-17	
      7291.80000	      2.94422e-17	
      7293.70000	      3.23882e-17	
      7295.60000	      3.12918e-17	
      7297.50000	      3.14125e-17	
      7299.40000	      3.17355e-17	
      7301.30000	      3.17873e-17	
      7303.20000	      3.16556e-17	
      7305.10000	      3.09759e-17	
      7307.00000	      3.02673e-17	
      7308.90000	      3.18320e-17	
      7310.80000	      3.06434e-17	
      7312.70000	      2.93213e-17	
      7314.60000	      3.20065e-17	
      7316.50000	      3.17256e-17	
      7318.40000	      3.07519e-17	
      7320.30000	      3.14855e-17	
      7322.20000	      3.22249e-17	
      7324.10000	      3.26849e-17	
      7326.00000	      3.25633e-17	
      7327.90000	      3.11373e-17	
      7329.80000	      3.02846e-17	
      7331.70000	      3.15937e-17	
      7333.60000	      3.19537e-17	
      7335.50000	      2.98498e-17	
      7337.40000	      3.06260e-17	
      7339.30000	      3.02765e-17	
      7341.20000	      3.05700e-17	
      7343.10000	      2.88129e-17	
      7345.00000	      3.09292e-17	
      7346.90000	      3.28821e-17	
      7348.80000	      3.25870e-17	
      7350.70000	      3.14665e-17	
      7352.60000	      3.15403e-17	
      7354.50000	      3.12627e-17	
      7356.40000	      3.14951e-17	
      7358.30000	      2.99310e-17	
      7360.20000	      3.07080e-17	
      7362.10000	      2.97762e-17	
      7364.00000	      2.97195e-17	
      7365.90000	      3.13557e-17	
      7367.80000	      3.01915e-17	
      7369.70000	      3.08299e-17	
      7371.60000	      3.38997e-17	
      7373.50000	      3.29306e-17	
      7375.40000	      3.19976e-17	
      7377.30000	      3.06373e-17	
      7379.20000	      3.12820e-17	
      7381.10000	      3.14277e-17	
      7383.00000	      3.08050e-17	
      7384.90000	      2.92295e-17	
      7386.80000	      2.91875e-17	
      7388.70000	      2.93267e-17	
      7390.60000	      2.97630e-17	
      7392.50000	      3.02242e-17	
      7394.40000	      3.03218e-17	
      7396.30000	      2.89479e-17	
      7398.20000	      2.98360e-17	
      7400.10000	      3.06233e-17	
      7402.00000	      2.98766e-17	
      7403.90000	      2.95450e-17	
      7405.80000	      3.00870e-17	
      7407.70000	      3.03903e-17	
      7409.60000	      2.96929e-17	
      7411.50000	      2.84429e-17	
      7413.40000	      2.78114e-17	
      7415.30000	      2.86446e-17	
      7417.20000	      2.79914e-17	
      7419.10000	      2.78355e-17	
      7421.00000	      2.72601e-17	
      7422.90000	      2.76502e-17	
      7424.80000	      2.82997e-17	
      7426.70000	      2.85959e-17	
      7428.60000	      2.85549e-17	
      7430.50000	      2.80646e-17	
      7432.40000	      2.83749e-17	
      7434.30000	      2.82607e-17	
      7436.20000	      2.75945e-17	
      7438.10000	      2.70141e-17	
      7440.00000	      2.80067e-17	
      7441.90000	      2.77005e-17	
      7443.80000	      2.60456e-17	
      7445.70000	      2.58230e-17	
      7447.60000	      2.55782e-17	
      7449.50000	      2.65124e-17	
      7451.40000	      2.58448e-17	
      7453.30000	      2.62781e-17	
      7455.20000	      2.48324e-17	
      7457.10000	      2.54616e-17	
      7459.00000	      2.66319e-17	
      7460.90000	      2.67144e-17	
      7462.80000	      2.60569e-17	
      7464.70000	      2.49657e-17	
      7466.60000	      2.47250e-17	
      7468.50000	      2.55197e-17	
      7470.40000	      2.51263e-17	
      7472.30000	      2.35039e-17	
      7474.20000	      2.31477e-17	
      7476.10000	      2.42903e-17	
      7478.00000	      2.27427e-17	
      7479.90000	      2.34235e-17	
      7481.80000	      2.32286e-17	
      7483.70000	      2.18071e-17	
      7485.60000	      2.21368e-17	
      7487.50000	      2.33963e-17	
      7489.40000	      2.36966e-17	
      7491.30000	      2.35786e-17	
      7493.20000	      2.27323e-17	
      7495.10000	      2.32403e-17	
      7497.00000	      2.15215e-17	
      7498.90000	      2.06458e-17	
      7500.80000	      2.10969e-17	
      7502.70000	      2.23453e-17	
      7504.60000	      2.24366e-17	
      7506.50000	      2.23934e-17	
      7508.40000	      2.10516e-17	
      7510.30000	      2.03310e-17	
      7512.20000	      2.07621e-17	
      7514.10000	      2.03281e-17	
      7516.00000	      2.14625e-17	
      7517.90000	      2.01362e-17	
      7519.80000	      2.08085e-17	
      7521.70000	      2.03279e-17	
      7523.60000	      1.88442e-17	
      7525.50000	      1.86042e-17	
      7527.40000	      1.89752e-17	
      7529.30000	      2.03250e-17	
      7531.20000	      2.00767e-17	
      7533.10000	      1.84047e-17	
      7535.00000	      1.87189e-17	
      7536.90000	      1.91270e-17	
      7538.80000	      1.75151e-17	
      7540.70000	      1.85446e-17	
      7542.60000	      1.68185e-17	
      7544.50000	      1.69539e-17	
      7546.40000	      1.83367e-17	
      7548.30000	      1.69636e-17	
      7550.20000	      1.62043e-17	
      7552.10000	      1.55034e-17	
      7554.00000	      1.68004e-17	
      7555.90000	      1.81749e-17	
      7557.80000	      1.62196e-17	
      7559.70000	      1.56702e-17	
      7561.60000	      1.59958e-17	
      7563.50000	      1.59596e-17	
      7565.40000	      1.56903e-17	
      7567.30000	      1.51846e-17	
      7569.20000	      1.41434e-17	
      7571.10000	      1.30451e-17	
      7573.00000	      1.34939e-17	
      7574.90000	      1.48061e-17	
      7576.80000	      1.46512e-17	
      7578.70000	      1.37859e-17	
      7580.60000	      1.24680e-17	
      7582.50000	      1.31310e-17	
      7584.40000	      1.33484e-17	
      7586.30000	      1.15418e-17	
      7588.20000	      1.15345e-17	
      7590.10000	      1.16023e-17	
      7592.00000	      1.08513e-17	
      7593.90000	      8.10519e-18	
      7595.80000	      6.06648e-18	
      7597.70000	      4.95440e-18	
      7599.60000	      3.85656e-18	
      7601.50000	      3.72678e-18	
      7603.40000	      1.56189e-18	
      7605.30000	      2.57201e-18	
      7607.20000	      3.06972e-18	
      7609.10000	      2.37183e-18	
      7611.00000	      2.82594e-18	
      7612.90000	      3.52467e-18	
      7614.80000	      2.46307e-18	
      7616.70000	      5.53644e-18	
      7618.60000	      6.88351e-18	
      7620.50000	      4.71969e-18	
      7622.40000	      4.54355e-18	
      7624.30000	      5.07405e-18	
      7626.20000	      4.25671e-18	
      7628.10000	      1.69193e-18	
      7630.00000	      1.50871e-18	
      7631.90000	      2.47300e-18	
      7633.80000	      2.41773e-18	
      7635.70000	      1.68804e-18	
      7637.60000	      2.39569e-18	
      7639.50000	      2.85832e-18	
      7641.40000	      2.54172e-18	
      7643.30000	      2.43603e-18	
      7645.20000	      2.09084e-18	
      7647.10000	      1.41251e-18	
      7649.00000	      1.14512e-18	
      7650.90000	      1.28114e-18	
      7652.80000	      1.21561e-18	
      7654.70000	      8.21170e-19	
      7656.60000	      6.05940e-19	
      7658.50000	      1.04005e-18	
      7660.40000	      3.65059e-19	
      7662.30000	      2.87867e-19	
      7664.20000	      7.50792e-19	
      7666.10000	      1.50413e-18	
      7668.00000	      4.05477e-19	
      7669.90000	      5.41941e-19	
      7671.80000	      8.70315e-19	
      7673.70000	      7.16578e-19	
      7675.60000	      3.10467e-19	
      7677.50000	      1.06387e-18	
      7679.40000	      1.30380e-18	
      7681.30000	      1.35781e-18	
      7683.20000	      1.53766e-18	
      7685.10000	      1.03030e-18	
      7687.00000	      1.19773e-18	
      7688.90000	      1.13271e-18	
      7690.80000	      1.69687e-19	
      7692.70000	      6.46139e-19	
      7694.60000	     -3.62467e-19	
      7696.50000	      1.07829e-18	
      7698.40000	      1.09575e-18	
      7700.30000	      1.64940e-18	
      7702.20000	      1.30782e-18	
      7704.10000	      7.94499e-19	
      7706.00000	      1.09748e-18	
      7707.90000	      2.93699e-18	
      7709.80000	      3.29381e-18	
      7711.70000	      2.59859e-18	
      7713.60000	      3.65084e-18	
      7715.50000	      2.70538e-18	
      7717.40000	      4.67134e-18	
      7719.30000	      2.90049e-18	
      7721.20000	      3.80807e-18	
      7723.10000	      5.44497e-18	
      7725.00000	      6.40703e-18	
      7726.90000	      5.44214e-18	
      7728.80000	      3.88091e-18	
      7730.70000	      4.27792e-18	
      7732.60000	      6.24249e-18	
      7734.50000	      7.26831e-18	
      7736.40000	      6.83508e-18	
      7738.30000	      7.90921e-18	
      7740.20000	      8.95859e-18	
      7742.10000	      8.62892e-18	
      7744.00000	      7.90447e-18	
      7745.90000	      9.12273e-18	
      7747.80000	      8.69302e-18	
      7749.70000	      7.87278e-18	
      7751.60000	      6.97002e-18	
      7753.50000	      6.66584e-18	
      7755.40000	      9.69424e-18	
      7757.30000	      9.41935e-18	
      7759.20000	      1.16209e-17	
      7761.10000	      1.25318e-17	
      7763.00000	      1.16467e-17	
      7764.90000	      1.09737e-17	
      7766.80000	      1.32122e-17	
      7768.70000	      1.51276e-17	
      7770.60000	      1.34467e-17	
      7772.50000	      1.52919e-17	
      7774.40000	      1.53839e-17	
      7776.30000	      1.48070e-17	
      7778.20000	      1.45607e-17	
      7780.10000	      1.44173e-17	
      7782.00000	      1.52918e-17	
      7783.90000	      1.46286e-17	
      7785.80000	      1.28636e-17	
      7787.70000	      1.42342e-17	
      7789.60000	      1.66158e-17	
      7791.50000	      1.76358e-17	
      7793.40000	      1.45031e-17	
      7795.30000	      9.98002e-18	
      7797.20000	      7.36255e-18	
      7799.10000	      7.31408e-18	
      7801.00000	      6.90089e-18	
      7802.90000	      9.61331e-18	
      7804.80000	      1.55004e-17	
      7806.70000	      1.73936e-17	
      7808.60000	      1.79051e-17	
      7810.50000	      1.84629e-17	
      7812.40000	      2.00515e-17	
      7814.30000	      2.09892e-17	
      7816.20000	      2.04148e-17	
      7818.10000	      2.30095e-17	
      7820.00000	      2.29928e-17	
      7821.90000	      2.39973e-17	
      7823.80000	      2.51521e-17	
      7825.70000	      2.23099e-17	
      7827.60000	      2.23299e-17	
      7829.50000	      2.27204e-17	
      7831.40000	      2.34516e-17	
      7833.30000	      2.46702e-17	
      7835.20000	      2.63771e-17	
      7837.10000	      2.54159e-17	
      7839.00000	      2.42900e-17	
      7840.90000	      2.54738e-17	
      7842.80000	      2.68406e-17	
      7844.70000	      2.81077e-17	
      7846.60000	      2.91997e-17	
      7848.50000	      2.98049e-17	
      7850.40000	      2.99298e-17	
      7852.30000	      2.71024e-17	
      7854.20000	      2.72199e-17	
      7856.10000	      2.87895e-17	
      7858.00000	      2.76396e-17	
      7859.90000	      2.86921e-17	
      7861.80000	      3.30892e-17	
      7863.70000	      3.25917e-17	
      7865.60000	      3.23542e-17	
      7867.50000	      3.35691e-17	
      7869.40000	      3.38020e-17	
      7871.30000	      3.14286e-17	
      7873.20000	      2.89736e-17	
      7875.10000	      3.02007e-17	
      7877.00000	      3.29182e-17	
      7878.90000	      3.60227e-17	
      7880.80000	      3.58828e-17	
      7882.70000	      3.67082e-17	
      7884.60000	      3.59740e-17	
      7886.50000	      3.37632e-17	
      7888.40000	      3.31779e-17	
      7890.30000	      3.28848e-17	
      7892.20000	      3.64464e-17	
      7894.10000	      3.90601e-17	
      7896.00000	      3.91800e-17	
      7897.90000	      3.77484e-17	
      7899.80000	      3.84654e-17	
      7901.70000	      3.90422e-17	
      7903.60000	      3.89111e-17	
      7905.50000	      3.85456e-17	
      7907.40000	      3.67092e-17	
      7909.30000	      3.78551e-17	
      7911.20000	      3.51028e-17	
      7913.10000	      3.72354e-17	
      7915.00000	      3.77935e-17	
      7916.90000	      3.86667e-17	
      7918.80000	      4.10349e-17	
      7920.70000	      4.28018e-17	
      7922.60000	      4.24094e-17	
      7924.50000	      3.82203e-17	
      7926.40000	      3.92502e-17	
      7928.30000	      4.14138e-17	
      7930.20000	      4.33784e-17	
      7932.10000	      4.59500e-17	
      7934.00000	      4.54896e-17	
      7935.90000	      4.44775e-17	
      7937.80000	      4.42663e-17	
      7939.70000	      4.14304e-17	
      7941.60000	      3.80128e-17	
      7943.50000	      2.99524e-17	
      7945.40000	      2.11505e-17	
      7947.30000	      1.79609e-17	
      7949.20000	      2.26290e-17	
      7951.10000	      3.26637e-17	
      7953.00000	      4.13517e-17	
      7954.90000	      4.75006e-17	
      7956.80000	      4.90314e-17	
      7958.70000	      5.04344e-17	
      7960.60000	      4.89910e-17	
      7962.50000	      4.87652e-17	
      7964.40000	      4.98806e-17	
      7966.30000	      5.25928e-17	
      7968.20000	      5.18814e-17	
      7970.10000	      4.97225e-17	
      7972.00000	      5.06105e-17	
      7973.90000	      5.33708e-17	
      7975.80000	      5.53782e-17	
      7977.70000	      5.56082e-17	
      7979.60000	      5.53193e-17	
      7981.50000	      5.31733e-17	
      7983.40000	      5.32722e-17	
      7985.30000	      5.54979e-17	
      7987.20000	      5.55255e-17	
      7989.10000	      5.50478e-17	
      7991.00000	      5.52918e-17	
      7992.90000	      5.71875e-17	
      7994.80000	      5.90965e-17	
      7996.70000	      6.02532e-17	
      7998.60000	      5.82389e-17	
      8000.50000	      5.81411e-17	
      8002.40000	      5.77118e-17	
      8004.30000	      5.72246e-17	
      8006.20000	      5.84914e-17	
      8008.10000	      6.12683e-17	
      8010.00000	      6.31326e-17	
      8011.90000	      6.27947e-17	
      8013.80000	      6.32471e-17	
      8015.70000	      6.39814e-17	
      8017.60000	      6.36717e-17	
      8019.50000	      6.33643e-17	
      8021.40000	      6.37943e-17	
      8023.30000	      6.55744e-17	
      8025.20000	      6.75639e-17	
      8027.10000	      6.66093e-17	
      8029.00000	      6.64858e-17	
      8030.90000	      6.73293e-17	
      8032.80000	      6.79408e-17	
      8034.70000	      6.64890e-17	
      8036.60000	      6.55525e-17	
      8038.50000	      6.63654e-17	
      8040.40000	      6.73779e-17	
      8042.30000	      6.91455e-17	
      8044.20000	      7.08851e-17	
      8046.10000	      7.17153e-17	
      8048.00000	      7.06480e-17	
      8049.90000	      7.13085e-17	
      8051.80000	      7.35894e-17	
      8053.70000	      7.32177e-17	
      8055.60000	      7.28529e-17	
      8057.50000	      7.30186e-17	
      8059.40000	      7.15480e-17	
      8061.30000	      7.02042e-17	
      8063.20000	      6.98960e-17	
      8065.10000	      7.44556e-17	
      8067.00000	      7.64853e-17	
      8068.90000	      7.73852e-17	
      8070.80000	      7.74428e-17	
      8072.70000	      7.90455e-17	
      8074.60000	      7.91664e-17	
      8076.50000	      7.82731e-17	
      8078.40000	      7.88239e-17	
      8080.30000	      8.04970e-17	
      8082.20000	      8.04776e-17	
      8084.10000	      7.93262e-17	
      8086.00000	      7.81233e-17	
      8087.90000	      7.78950e-17	
      8089.80000	      7.87354e-17	
      8091.70000	      8.16787e-17	
      8093.60000	      8.24135e-17	
      8095.50000	      8.22226e-17	
      8097.40000	      8.03462e-17	
      8099.30000	      8.00315e-17	
      8101.20000	      8.23267e-17	
      8103.10000	      8.40307e-17	
      8105.00000	      8.54180e-17	
      8106.90000	      8.52461e-17	
      8108.80000	      8.63265e-17	
      8110.70000	      8.75357e-17	
      8112.60000	      8.40535e-17	
      8114.50000	      8.41403e-17	
      8116.40000	      8.45950e-17	
      8118.30000	      8.63635e-17	
      8120.20000	      8.81101e-17	
      8122.10000	      8.89204e-17	
      8124.00000	      9.03805e-17	
      8125.90000	      9.11857e-17	
      8127.80000	      9.05635e-17	
      8129.70000	      9.00745e-17	
      8131.60000	      8.90993e-17	
      8133.50000	      8.78678e-17	
      8135.40000	      8.82983e-17	
      8137.30000	      8.89092e-17	
      8139.20000	      8.76589e-17	
      8141.10000	      8.58617e-17	
      8143.00000	      8.65390e-17	
      8144.90000	      8.59921e-17	
      8146.80000	      8.48712e-17	
      8148.70000	      8.66200e-17	
      8150.60000	      8.78723e-17	
      8152.50000	      8.93073e-17	
      8154.40000	      9.21607e-17	
      8156.30000	      8.94600e-17	
      8158.20000	      9.09420e-17	
      8160.10000	      8.84833e-17	
      8162.00000	      8.74039e-17	
      8163.90000	      8.88189e-17	
      8165.80000	      9.16660e-17	
      8167.70000	      9.37846e-17	
      8169.60000	      9.68290e-17	
      8171.50000	      9.69583e-17	
      8173.40000	      9.52663e-17	
      8175.30000	      9.33053e-17	
      8177.20000	      8.90577e-17	
      8179.10000	      8.17995e-17	
      8181.00000	      7.48360e-17	
      8182.90000	      7.39057e-17	
      8184.80000	      7.84052e-17	
      8186.70000	      8.45060e-17	
      8188.60000	      8.53628e-17	
      8190.50000	      7.84476e-17	
      8192.40000	      6.90815e-17	
      8194.30000	      6.65392e-17	
      8196.20000	      7.03659e-17	
      8198.10000	      8.20234e-17	
      8200.00000	      9.00781e-17	
      8201.90000	      9.56654e-17	
      8203.80000	      1.02675e-16	
      8205.70000	      1.04273e-16	
      8207.60000	      1.03710e-16	
      8209.50000	      1.06169e-16	
      8211.40000	      1.06571e-16	
      8213.30000	      1.06204e-16	
      8215.20000	      1.05267e-16	
      8217.10000	      1.05305e-16	
      8219.00000	      1.03053e-16	
      8220.90000	      1.03197e-16	
      8222.80000	      1.05372e-16	
      8224.70000	      1.01264e-16	
      8226.60000	      9.58988e-17	
      8228.50000	      9.59254e-17	
      8230.40000	      9.80459e-17	
      8232.30000	      9.83546e-17	
      8234.20000	      1.03996e-16	
      8236.10000	      1.08024e-16	
      8238.00000	      1.07533e-16	
      8239.90000	      1.06473e-16	
      8241.80000	      1.08812e-16	
      8243.70000	      1.09925e-16	
      8245.60000	      1.13084e-16	
      8247.50000	      1.17941e-16	
      8249.40000	      1.17697e-16	
      8251.30000	      1.15831e-16	
      8253.20000	      1.12906e-16	
      8255.10000	      1.09662e-16	
      8257.00000	      1.11363e-16	
      8258.90000	      1.15596e-16	
      8260.80000	      1.17938e-16	
      8262.70000	      1.14844e-16	
      8264.60000	      1.16710e-16	
      8266.50000	      1.14592e-16	
      8268.40000	      1.13009e-16	
      8270.30000	      1.11319e-16	
      8272.20000	      1.11614e-16	
      8274.10000	      1.13327e-16	
      8276.00000	      1.12058e-16	
      8277.90000	      1.13334e-16	
      8279.80000	      1.10866e-16	
      8281.70000	      1.09976e-16	
      8283.60000	      1.08907e-16	
      8285.50000	      1.10093e-16	
      8287.40000	      1.10021e-16	
      8289.30000	      1.08528e-16	
      8291.20000	      1.11107e-16	
      8293.10000	      1.13565e-16	
      8295.00000	      1.10694e-16	
      8296.90000	      1.12769e-16	
      8298.80000	      1.18938e-16	
      8300.70000	      1.18714e-16	
      8302.60000	      1.18414e-16	
      8304.50000	      1.19873e-16	
      8306.40000	      1.19507e-16	
      8308.30000	      1.18765e-16	
      8310.20000	      1.14825e-16	
      8312.10000	      1.17325e-16	
      8314.00000	      1.19678e-16	
      8315.90000	      1.19587e-16	
      8317.80000	      1.19575e-16	
      8319.70000	      1.22008e-16	
      8321.60000	      1.22394e-16	
      8323.50000	      1.21156e-16	
      8325.40000	      1.22765e-16	
      8327.30000	      1.25671e-16	
      8329.20000	      1.25969e-16	
      8331.10000	      1.26803e-16	
      8333.00000	      1.24328e-16	
      8334.90000	      1.24950e-16	
      8336.80000	      1.27182e-16	
      8338.70000	      1.30591e-16	
      8340.60000	      1.32628e-16	
      8342.50000	      1.31165e-16	
      8344.40000	      1.26334e-16	
      8346.30000	      1.28080e-16	
      8348.20000	      1.29643e-16	
      8350.10000	      1.27800e-16	
      8352.00000	      1.26735e-16	
      8353.90000	      1.26498e-16	
      8355.80000	      1.26623e-16	
      8357.70000	      1.30356e-16	
      8359.60000	      1.31934e-16	
      8361.50000	      1.31490e-16	
      8363.40000	      1.30129e-16	
      8365.30000	      1.34719e-16	
      8367.20000	      1.39151e-16	
      8369.10000	      1.37571e-16	
      8371.00000	      1.35098e-16	
      8372.90000	      1.34985e-16	
      8374.80000	      1.37419e-16	
      8376.70000	      1.40970e-16	
      8378.60000	      1.43649e-16	
      8380.50000	      1.45825e-16	
      8382.40000	      1.48261e-16	
      8384.30000	      1.43798e-16	
      8386.20000	      1.39178e-16	
      8388.10000	      1.38190e-16	
      8390.00000	      1.36732e-16	
      8391.90000	      1.35518e-16	
      8393.80000	      1.38409e-16	
      8395.70000	      1.45097e-16	
      8397.60000	      1.52715e-16	
      8399.50000	      1.51913e-16	
      8401.40000	      1.45846e-16	
      8403.30000	      1.41352e-16	
      8405.20000	      1.39120e-16	
      8407.10000	      1.42618e-16	
      8409.00000	      1.47552e-16	
      8410.90000	      1.49949e-16	
      8412.80000	      1.53624e-16	
      8414.70000	      1.49021e-16	
      8416.60000	      1.47558e-16	
      8418.50000	      1.46223e-16	
      8420.40000	      1.46671e-16	
      8422.30000	      1.50709e-16	
      8424.20000	      1.52126e-16	
      8426.10000	      1.52240e-16	
      8428.00000	      1.49339e-16	
      8429.90000	      1.50283e-16	
      8431.80000	      1.45035e-16	
      8433.70000	      1.38238e-16	
      8435.60000	      1.37691e-16	
      8437.50000	      1.41989e-16	
      8439.40000	      1.42503e-16	
      8441.30000	      1.38295e-16	
      8443.20000	      1.35510e-16	
      8445.10000	      1.38207e-16	
      8447.00000	      1.38603e-16	
      8448.90000	      1.36008e-16	
      8450.80000	      1.31845e-16	
      8452.70000	      1.29910e-16	
      8454.60000	      1.32517e-16	
      8456.50000	      1.33800e-16	
      8458.40000	      1.36080e-16	
      8460.30000	      1.34162e-16	
      8462.20000	      1.33886e-16	
      8464.10000	      1.37508e-16	
      8466.00000	      1.38465e-16	
      8467.90000	      1.32393e-16	
      8469.80000	      1.35169e-16	
      8471.70000	      1.37375e-16	
      8473.60000	      1.43706e-16	
      8475.50000	      1.40709e-16	
      8477.40000	      1.37572e-16	
      8479.30000	      1.35245e-16	
      8481.20000	      1.34877e-16	
      8483.10000	      1.36797e-16	
      8485.00000	      1.37689e-16	
      8486.90000	      1.38413e-16	
      8488.80000	      1.38005e-16	
      8490.70000	      1.38699e-16	
      8492.60000	      1.37173e-16	
      8494.50000	      1.35214e-16	
      8496.40000	      1.34306e-16	
      8498.30000	      1.38307e-16	
      8500.20000	      1.42930e-16	
      8502.10000	      1.41823e-16	
      8504.00000	      1.43480e-16	
      8505.90000	      1.41215e-16	
      8507.80000	      1.38922e-16	
      8509.70000	      1.39297e-16	
      8511.60000	      1.37353e-16	
      8513.50000	      1.28479e-16	
      8515.40000	      1.11523e-16	
      8517.30000	      8.98700e-17	
      8519.20000	      7.23209e-17	
      8521.10000	      7.76547e-17	
      8523.00000	      1.03846e-16	
      8524.90000	      1.27601e-16	
      8526.80000	      1.40581e-16	
      8528.70000	      1.47053e-16	
      8530.60000	      1.47955e-16	
      8532.50000	      1.49787e-16	
      8534.40000	      1.52409e-16	
      8536.30000	      1.51265e-16	
      8538.20000	      1.51662e-16	
      8540.10000	      1.55182e-16	
      8542.00000	      1.57903e-16	
      8543.90000	      1.58848e-16	
      8545.80000	      1.60591e-16	
      8547.70000	      1.60249e-16	
      8549.60000	      1.57355e-16	
      8551.50000	      1.57618e-16	
      8553.40000	      1.58577e-16	
      8555.30000	      1.57694e-16	
      8557.20000	      1.57220e-16	
      8559.10000	      1.58129e-16	
      8561.00000	      1.59641e-16	
      8562.90000	      1.61148e-16	
      8564.80000	      1.63224e-16	
      8566.70000	      1.64511e-16	
      8568.60000	      1.63496e-16	
      8570.50000	      1.64921e-16	
      8572.40000	      1.63937e-16	
      8574.30000	      1.62683e-16	
      8576.20000	      1.66763e-16	
      8578.10000	      1.70050e-16	
      8580.00000	      1.71311e-16	
      8581.90000	      1.68831e-16	
      8583.80000	      1.67798e-16	
      8585.70000	      1.69900e-16	
      8587.60000	      1.67608e-16	
      8589.50000	      1.66255e-16	
      8591.40000	      1.63988e-16	
      8593.30000	      1.67188e-16	
      8595.20000	      1.68425e-16	
      8597.10000	      1.69277e-16	
      8599.00000	      1.65846e-16	
      8600.90000	      1.64332e-16	
      8602.80000	      1.64070e-16	
      8604.70000	      1.60241e-16	
      8606.60000	      1.48333e-16	
      8608.50000	      1.26260e-16	
      8610.40000	      9.90462e-17	
      8612.30000	      8.07816e-17	
      8614.20000	      7.31053e-17	
      8616.10000	      7.24644e-17	
      8618.00000	      7.53583e-17	
      8619.90000	      7.92686e-17	
      8621.80000	      7.82280e-17	
      8623.70000	      8.18970e-17	
      8625.60000	      8.52577e-17	
      8627.50000	      7.87085e-17	
      8629.40000	      6.42839e-17	
      8631.30000	      6.26939e-17	
      8633.20000	      6.97156e-17	
      8635.10000	      7.32678e-17	
      8637.00000	      7.92046e-17	
      8638.90000	      8.34161e-17	
      8640.80000	      8.32237e-17	
      8642.70000	      8.50836e-17	
      8644.60000	      8.64762e-17	
      8646.50000	      8.84014e-17	
      8648.40000	      9.77962e-17	
      8650.30000	      1.09451e-16	
      8652.20000	      1.13365e-16	
      8654.10000	      1.12944e-16	
      8656.00000	      1.07096e-16	
      8657.90000	      1.12770e-16	
      8659.80000	      1.11338e-16	
      8661.70000	      1.11909e-16	
      8663.60000	      1.12507e-16	
      8665.50000	      1.13804e-16	
      8667.40000	      1.12634e-16	
      8669.30000	      1.05455e-16	
      8671.20000	      1.08370e-16	
      8673.10000	      1.13072e-16	
      8675.00000	      1.22325e-16	
      8676.90000	      1.19663e-16	
      8678.80000	      1.09428e-16	
      8680.70000	      1.01847e-16	
      8682.60000	      1.00685e-16	
      8684.50000	      1.12102e-16	
      8686.40000	      1.21548e-16	
      8688.30000	      1.14168e-16	
      8690.20000	      1.00051e-16	
      8692.10000	      8.34076e-17	
      8694.00000	      7.90623e-17	
      8695.90000	      7.98212e-17	
      8697.80000	      8.78966e-17	
      8699.70000	      9.29461e-17	
      8701.60000	      9.28110e-17	
      8703.50000	      9.15132e-17	
      8705.40000	      8.48972e-17	
      8707.30000	      8.04909e-17	
      8709.20000	      7.94950e-17	
      8711.10000	      8.30733e-17	
      8713.00000	      8.67815e-17	
      8714.90000	      8.77867e-17	
      8716.80000	      8.70518e-17	
      8718.70000	      8.68777e-17	
      8720.60000	      8.49076e-17	
      8722.50000	      8.68636e-17	
      8724.40000	      9.20842e-17	
      8726.30000	      9.67068e-17	
      8728.20000	      1.00247e-16	
      8730.10000	      9.54507e-17	
      8732.00000	      9.08728e-17	
      8733.90000	      9.07772e-17	
      8735.80000	      9.67090e-17	
      8737.70000	      9.90119e-17	
      8739.60000	      1.01764e-16	
      8741.50000	      1.07001e-16	
      8743.40000	      1.07622e-16	
      8745.30000	      1.06263e-16	
      8747.20000	      1.04566e-16	
      8749.10000	      1.04417e-16	
      8751.00000	      1.08160e-16	
      8752.90000	      1.11600e-16	
      8754.80000	      1.14437e-16	
      8756.70000	      1.14001e-16	
      8758.60000	      1.12273e-16	
      8760.50000	      1.12461e-16	
      8762.40000	      1.07312e-16	
      8764.30000	      1.02204e-16	
      8766.20000	      1.03500e-16	
      8768.10000	      1.12039e-16	
      8770.00000	      1.26262e-16	
      8771.90000	      1.39828e-16	
      8773.80000	      1.40390e-16	
      8775.70000	      1.29481e-16	
      8777.60000	      1.16905e-16	
      8779.50000	      1.11374e-16	
      8781.40000	      1.12076e-16	
      8783.30000	      1.13537e-16	
      8785.20000	      1.09427e-16	
      8787.10000	      1.06480e-16	
      8789.00000	      1.08023e-16	
      8790.90000	      1.14406e-16	
      8792.80000	      1.23147e-16	
      8794.70000	      1.25713e-16	
      8796.60000	      1.18994e-16	
      8798.50000	      1.09162e-16	
      8800.40000	      1.03915e-16	
      8802.30000	      1.04920e-16	
      8804.20000	      1.06361e-16	
      8806.10000	      1.09822e-16	
      8808.00000	      1.14267e-16	
      8809.90000	      1.29234e-16	
      8811.80000	      1.43861e-16	
      8813.70000	      1.49542e-16	
      8815.60000	      1.52522e-16	
      8817.50000	      1.43596e-16	
      8819.40000	      1.34164e-16	
      8821.30000	      1.22763e-16	
      8823.20000	      1.19349e-16	
      8825.10000	      1.14607e-16	
      8827.00000	      1.16271e-16	
      8828.90000	      1.23241e-16	
      8830.80000	      1.24769e-16	
      8832.70000	      1.20372e-16	
      8834.60000	      1.29794e-16	
      8836.50000	      1.39956e-16	
      8838.40000	      1.44812e-16	
      8840.30000	      1.42907e-16	
      8842.20000	      1.30399e-16	
      8844.10000	      1.13707e-16	
      8846.00000	      1.07809e-16	
      8847.90000	      1.24234e-16	
      8849.80000	      1.43624e-16	
      8851.70000	      1.45903e-16	
      8853.60000	      1.36660e-16	
      8855.50000	      1.26405e-16	
      8857.40000	      1.27891e-16	
      8859.30000	      1.35068e-16	
      8861.20000	      1.44881e-16	
      8863.10000	      1.44517e-16	
      8865.00000	      1.36154e-16	
      8866.90000	      1.20207e-16	
      8868.80000	      1.14844e-16	
      8870.70000	      1.13171e-16	
      8872.60000	      1.29897e-16	
      8874.50000	      1.46338e-16	
      8876.40000	      1.62070e-16	
      8878.30000	      1.60587e-16	
      8880.20000	      1.39046e-16	
      8882.10000	      1.30539e-16	
      8884.00000	      1.34454e-16	
      8885.90000	      1.47974e-16	
      8887.80000	      1.58975e-16	
      8889.70000	      1.55327e-16	
      8891.60000	      1.39915e-16	
      8893.50000	      1.26812e-16	
      8895.40000	      1.23553e-16	
      8897.30000	      1.38887e-16	
      8899.20000	      1.60177e-16	
      8901.10000	      1.68873e-16	
      8903.00000	      1.60341e-16	
      8904.90000	      1.47908e-16	
      8906.80000	      1.39144e-16	
      8908.70000	      1.38713e-16	
      8910.60000	      1.44430e-16	
      8912.50000	      1.55457e-16	
      8914.40000	      1.62863e-16	
      8916.30000	      1.58894e-16	
      8918.20000	      1.53604e-16	
      8920.10000	      1.35199e-16	
      8922.00000	      1.29521e-16	
      8923.90000	      1.36908e-16	
      8925.80000	      1.47667e-16	
      8927.70000	      1.57668e-16	
      8929.60000	      1.72918e-16	
      8931.50000	      1.74486e-16	
      8933.40000	      1.63653e-16	
      8935.30000	      1.43801e-16	
      8937.20000	      1.21349e-16	
      8939.10000	      1.05081e-16	
      8941.00000	      1.00372e-16	
      8942.90000	      1.07892e-16	
      8944.80000	      1.26475e-16	
      8946.70000	      1.40290e-16	
      8948.60000	      1.41573e-16	
      8950.50000	      1.41268e-16	
      8952.40000	      1.49156e-16	
      8954.30000	      1.65219e-16	
      8956.20000	      1.78194e-16	
      8958.10000	      1.77177e-16	
      8960.00000	      1.60060e-16	
      8961.90000	      1.44264e-16	
      8963.80000	      1.35998e-16	
      8965.70000	      1.38705e-16	
      8967.60000	      1.49461e-16	
      8969.50000	      1.54675e-16	
      8971.40000	      1.60104e-16	
      8973.30000	      1.69754e-16	
      8975.20000	      1.69456e-16	
      8977.10000	      1.62191e-16	
      8979.00000	      1.58700e-16	
      8980.90000	      1.63850e-16	
      8982.80000	      1.75303e-16	
      8984.70000	      1.75748e-16	
      8986.60000	      1.66195e-16	
      8988.50000	      1.53383e-16	
      8990.40000	      1.50339e-16	
      8992.30000	      1.54997e-16	
      8994.20000	      1.50414e-16	
      8996.10000	      1.47953e-16	
      8998.00000	      1.54190e-16	
      8999.90000	      1.64644e-16	
      9001.80000	      1.76127e-16	
      9003.70000	      1.83455e-16	
      9005.60000	      1.75450e-16	
      9007.50000	      1.62515e-16	
      9009.40000	      1.62220e-16	
      9011.30000	      1.64288e-16	
      9013.20000	      1.68848e-16	
      9015.10000	      1.70302e-16	
      9017.00000	      1.67788e-16	
      9018.90000	      1.65159e-16	
      9020.80000	      1.53594e-16	
      9022.70000	      1.43805e-16	
      9024.60000	      1.42723e-16	
      9026.50000	      1.45854e-16	
      9028.40000	      1.54883e-16	
      9030.30000	      1.70304e-16	
      9032.20000	      1.84632e-16	
      9034.10000	      1.98543e-16	
      9036.00000	      1.98790e-16	
      9037.90000	      1.87619e-16	
      9039.80000	      1.73577e-16	
      9041.70000	      1.72898e-16	
      9043.60000	      1.76895e-16	
      9045.50000	      1.86256e-16	
      9047.40000	      1.90095e-16	
      9049.30000	      1.85869e-16	
      9051.20000	      1.79066e-16	
      9053.10000	      1.72139e-16	
      9055.00000	      1.64854e-16	
      9056.90000	      1.62412e-16	
      9058.80000	      1.61587e-16	
      9060.70000	      1.62608e-16	
      9062.60000	      1.65962e-16	
      9064.50000	      1.66952e-16	
      9066.40000	      1.67194e-16	
      9068.30000	      1.65933e-16	
      9070.20000	      1.61979e-16	
      9072.10000	      1.62499e-16	
      9074.00000	      1.70498e-16	
      9075.90000	      1.81778e-16	
      9077.80000	      1.82743e-16	
      9079.70000	      1.79021e-16	
      9081.60000	      1.81621e-16	
      9083.50000	      1.82647e-16	
      9085.40000	      1.81094e-16	
      9087.30000	      1.79727e-16	
      9089.20000	      1.83910e-16	
      9091.10000	      1.86458e-16	
      9093.00000	      1.91464e-16	
      9094.90000	      1.91085e-16	
      9096.80000	      1.87765e-16	
      9098.70000	      1.86672e-16	
      9100.60000	      1.88146e-16	
      9102.50000	      1.82643e-16	
      9104.40000	      1.76803e-16	
      9106.30000	      1.84926e-16	
      9108.20000	      1.93339e-16	
      9110.10000	      2.01508e-16	
      9112.00000	      2.04692e-16	
      9113.90000	      1.97669e-16	
      9115.80000	      1.96123e-16	
      9117.70000	      1.98793e-16	
      9119.60000	      1.97778e-16	
      9121.50000	      1.97887e-16	
      9123.40000	      2.00029e-16	
      9125.30000	      1.96706e-16	
      9127.20000	      1.98572e-16	
      9129.10000	      2.04444e-16	
      9131.00000	      2.04266e-16	
      9132.90000	      2.03100e-16	
      9134.80000	      1.87704e-16	
      9136.70000	      1.81903e-16	
      9138.60000	      1.82050e-16	
      9140.50000	      1.95284e-16	
      9142.40000	      2.06938e-16	
      9144.30000	      2.07838e-16	
      9146.20000	      2.03466e-16	
      9148.10000	      1.95946e-16	
      9150.00000	      1.96429e-16	
      9151.90000	      2.05708e-16	
      9153.80000	      2.14673e-16	
      9155.70000	      2.19465e-16	
      9157.60000	      2.17371e-16	
      9159.50000	      2.15439e-16	
      9161.40000	      2.12580e-16	
      9163.30000	      2.22055e-16	
      9165.20000	      2.24965e-16	
      9167.10000	      2.23571e-16	
      9169.00000	      2.14897e-16	
      9170.90000	      1.97152e-16	
      9172.80000	      1.89957e-16	
      9174.70000	      1.90671e-16	
      9176.60000	      2.06302e-16	
      9178.50000	      2.15629e-16	
      9180.40000	      2.16346e-16	
      9182.30000	      2.14769e-16	
      9184.20000	      2.26756e-16	
      9186.10000	      2.45220e-16	
      9188.00000	      2.57811e-16	
      9189.90000	      2.49338e-16	
      9191.80000	      2.34032e-16	
      9193.70000	      2.37600e-16	
      9195.60000	      2.41895e-16	
      9197.50000	      2.48015e-16	
      9199.40000	      2.55906e-16	
      9201.30000	      2.53792e-16	
      9203.20000	      2.46573e-16	
      9205.10000	      2.28928e-16	
      9207.00000	      2.23512e-16	
      9208.90000	      2.21167e-16	
      9210.80000	      2.20959e-16	
      9212.70000	      2.23777e-16	
      9214.60000	      2.27398e-16	
      9216.50000	      2.37665e-16	
      9218.40000	      2.40575e-16	
      9220.30000	      2.40127e-16	
      9222.20000	      2.37314e-16	
      9224.10000	      2.32430e-16	
      9226.00000	      2.36402e-16	
      9227.90000	      2.35217e-16	
      9229.80000	      2.32704e-16	
      9231.70000	      2.27271e-16	
      9233.60000	      2.25187e-16	
      9235.50000	      2.25970e-16	
      9237.40000	      2.37144e-16	
      9239.30000	      2.51013e-16	
      9241.20000	      2.52399e-16	
      9243.10000	      2.41284e-16	
      9245.00000	      2.23811e-16	
      9246.90000	      2.15411e-16	
      9248.80000	      2.18724e-16	
      9250.70000	      2.25613e-16	
      9252.60000	      2.43643e-16	
      9254.50000	      2.59372e-16	
      9256.40000	      2.55932e-16	
      9258.30000	      2.40809e-16	
      9260.20000	      2.34868e-16	
      9262.10000	      2.42420e-16	
      9264.00000	      2.48113e-16	
      9265.90000	      2.51958e-16	
      9267.80000	      2.46009e-16	
      9269.70000	      2.30523e-16	
      9271.60000	      2.16648e-16	
      9273.50000	      2.07013e-16	
      9275.40000	      1.97428e-16	
      9277.30000	      1.96536e-16	
      9279.20000	      1.99015e-16	
      9281.10000	      2.08727e-16	
      9283.00000	      2.14812e-16	
      9284.90000	      2.14369e-16	
      9286.80000	      2.16890e-16	
      9288.70000	      2.18460e-16	
      9290.60000	      2.18737e-16	
      9292.50000	      2.15317e-16	
      9294.40000	      2.12767e-16	
      9296.30000	      2.05355e-16	
      9298.20000	      2.00206e-16	
      9300.10000	      1.99695e-16	
      9302.00000	      2.06241e-16	
      9303.90000	      2.14301e-16	
      9305.80000	      2.05423e-16	
      9307.70000	      2.05821e-16	
      9309.60000	      2.11871e-16	
      9311.50000	      2.23590e-16	
      9313.40000	      2.11803e-16	
      9315.30000	      1.93052e-16	
      9317.20000	      1.87783e-16	
      9319.10000	      1.87206e-16	
      9321.00000	      1.86430e-16	
      9322.90000	      1.85598e-16	
      9324.80000	      1.79695e-16	
      9326.70000	      1.91497e-16	
      9328.60000	      1.96091e-16	
      9330.50000	      1.83677e-16	
      9332.40000	      1.72360e-16	
      9334.30000	      1.63155e-16	
      9336.20000	      1.64690e-16	
      9338.10000	      1.64193e-16	
      9340.00000	      1.54497e-16	
      9341.90000	      1.39820e-16	
      9343.80000	      1.45565e-16	
      9345.70000	      1.83267e-16	
      9347.60000	      2.03890e-16	
      9349.50000	      1.99581e-16	
      9351.40000	      1.76524e-16	
      9353.30000	      1.52647e-16	
      9355.20000	      1.50795e-16	
      9357.10000	      1.76363e-16	
      9359.00000	      2.05554e-16	
      9360.90000	      2.20159e-16	
      9362.80000	      2.15183e-16	
      9364.70000	      1.93054e-16	
      9366.60000	      1.71587e-16	
      9368.50000	      1.65920e-16	
      9370.40000	      1.83208e-16	
      9372.30000	      2.19785e-16	
      9374.20000	      2.37232e-16	
      9376.10000	      2.19163e-16	
      9378.00000	      2.08449e-16	
      9379.90000	      1.90725e-16	
      9381.80000	      2.04049e-16	
      9383.70000	      2.14570e-16	
      9385.60000	      2.24039e-16	
      9387.50000	      2.33867e-16	
      9389.40000	      2.57077e-16	
      9391.30000	      2.62613e-16	
      9393.20000	      2.51416e-16	
      9395.10000	      2.42521e-16	
      9397.00000	      2.31748e-16	
      9398.90000	      2.21773e-16	
      9400.80000	      2.28384e-16	
      9402.70000	      2.40548e-16	
      9404.60000	      2.47530e-16	
      9406.50000	      2.50869e-16	
      9408.40000	      2.38922e-16	
      9410.30000	      2.35921e-16	
      9412.20000	      2.41224e-16	
      9414.10000	      2.37633e-16	
      9416.00000	      2.41247e-16	
      9417.90000	      2.42687e-16	
      9419.80000	      2.45034e-16	
      9421.70000	      2.41009e-16	
      9423.60000	      2.30266e-16	
      9425.50000	      1.99325e-16	
      9427.40000	      1.99592e-16	
      9429.30000	      2.29085e-16	
      9431.20000	      2.60950e-16	
      9433.10000	      2.64871e-16	
      9435.00000	      2.37502e-16	
      9436.90000	      2.03662e-16	
      9438.80000	      1.71227e-16	
      9440.70000	      1.66129e-16	
      9442.60000	      1.88058e-16	
      9444.50000	      2.19498e-16	
      9446.40000	      2.49097e-16	
      9448.30000	      2.55618e-16	
      9450.20000	      2.48980e-16	
      9452.10000	      2.40353e-16	
      9454.00000	      2.22430e-16	
      9455.90000	      2.08769e-16	
      9457.80000	      2.12310e-16	
      9459.70000	      2.19413e-16	
      9461.60000	      2.40429e-16	
      9463.50000	      2.61881e-16	
      9465.40000	      2.66430e-16	
      9467.30000	      2.58916e-16	
      9469.20000	      2.55472e-16	
      9471.10000	      2.54603e-16	
      9473.00000	      2.59766e-16	
      9474.90000	      2.58489e-16	
      9476.80000	      2.62690e-16	
      9478.70000	      2.50766e-16	
      9480.60000	      2.36452e-16	
      9482.50000	      2.54174e-16	
      9484.40000	      2.68699e-16	
      9486.30000	      2.89862e-16	
      9488.20000	      3.03732e-16	
      9490.10000	      2.87867e-16	
      9492.00000	      2.54328e-16	
      9493.90000	      2.34944e-16	
      9495.80000	      2.33505e-16	
      9497.70000	      2.23126e-16	
      9499.60000	      2.18679e-16	
      9501.50000	      2.35164e-16	
      9503.40000	      2.63523e-16	
      9505.30000	      2.94233e-16	
      9507.20000	      3.05416e-16	
      9509.10000	      3.08011e-16	
      9511.00000	      2.93640e-16	
      9512.90000	      2.64225e-16	
      9514.80000	      2.33690e-16	
      9516.70000	      2.15714e-16	
      9518.60000	      2.21640e-16	
      9520.50000	      2.41431e-16	
      9522.40000	      2.56725e-16	
      9524.30000	      2.82190e-16	
      9526.20000	      2.89205e-16	
      9528.10000	      2.87904e-16	
      9530.00000	      2.94806e-16	
      9531.90000	      2.91669e-16	
      9533.80000	      2.87440e-16	
      9535.70000	      2.95273e-16	
      9537.60000	      2.96630e-16	
      9539.50000	      2.90702e-16	
      9541.40000	      2.83388e-16	
      9543.30000	      2.76570e-16	
      9545.20000	      2.80914e-16	
      9547.10000	      2.99665e-16	
      9549.00000	      3.08393e-16	
      9550.90000	      2.92429e-16	
      9552.80000	      2.81662e-16	
      9554.70000	      2.83418e-16	
      9556.60000	      2.99200e-16	
      9558.50000	      3.02137e-16	
      9560.40000	      2.95024e-16	
      9562.30000	      2.72351e-16	
      9564.20000	      2.57093e-16	
      9566.10000	      2.77278e-16	
      9568.00000	      2.88902e-16	
      9569.90000	      3.07914e-16	
      9571.80000	      3.15593e-16	
      9573.70000	      3.16402e-16	
      9575.60000	      3.06355e-16	
      9577.50000	      2.98153e-16	
      9579.40000	      2.96924e-16	
      9581.30000	      3.05845e-16	
      9583.20000	      3.07317e-16	
      9585.10000	      2.98530e-16	
      9587.00000	      2.67802e-16	
      9588.90000	      2.52395e-16	
      9590.80000	      2.57641e-16	
      9592.70000	      2.67638e-16	
      9594.60000	      2.68932e-16	
      9596.50000	      2.77320e-16	
      9598.40000	      2.84517e-16	
      9600.30000	      2.92789e-16	
      9602.20000	      2.87339e-16	
      9604.10000	      2.82328e-16	
      9606.00000	      2.92324e-16	
      9607.90000	      2.96161e-16	
      9609.80000	      2.92104e-16	
      9611.70000	      2.87613e-16	
      9613.60000	      2.89939e-16	
      9615.50000	      2.99333e-16	
      9617.40000	      3.10855e-16	
      9619.30000	      2.99060e-16	
      9621.20000	      2.80380e-16	
      9623.10000	      2.88612e-16	
      9625.00000	      3.02416e-16	
      9626.90000	      3.04700e-16	
      9628.80000	      3.13881e-16	
      9630.70000	      3.15153e-16	
      9632.60000	      2.92181e-16	
      9634.50000	      2.64150e-16	
      9636.40000	      2.52724e-16	
      9638.30000	      2.56702e-16	
      9640.20000	      2.76656e-16	
      9642.10000	      2.79225e-16	
      9644.00000	      2.79892e-16	
      9645.90000	      2.92256e-16	
      9647.80000	      2.95803e-16	
      9649.70000	      3.02273e-16	
      9651.60000	      3.07071e-16	
      9653.50000	      3.09081e-16	
      9655.40000	      3.16523e-16	
      9657.30000	      3.24034e-16	
      9659.20000	      3.25153e-16	
      9661.10000	      3.24586e-16	
      9663.00000	      3.27617e-16	
      9664.90000	      3.36847e-16	
      9666.80000	      3.42932e-16	
      9668.70000	      3.40549e-16	
      9670.60000	      3.56636e-16	
      9672.50000	      3.69800e-16	
      9674.40000	      3.75439e-16	
      9676.30000	      3.60220e-16	
      9678.20000	      3.51092e-16	
      9680.10000	      3.49034e-16	
      9682.00000	      3.51361e-16	
      9683.90000	      3.55373e-16	
      9685.80000	      3.62107e-16	
      9687.70000	      3.63883e-16	
      9689.60000	      3.69421e-16	
      9691.50000	      3.70458e-16	
      9693.40000	      3.64395e-16	
      9695.30000	      3.76394e-16	
      9697.20000	      3.75263e-16	
      9699.10000	      3.70552e-16	
      9701.00000	      3.69381e-16	
      9702.90000	      3.70347e-16	
      9704.80000	      3.71664e-16	
      9706.70000	      3.72548e-16	
      9708.60000	      3.69545e-16	
      9710.50000	      3.79953e-16	
      9712.40000	      3.86045e-16	
      9714.30000	      3.81861e-16	
      9716.20000	      3.79494e-16	
      9718.10000	      3.76813e-16	
      9720.00000	      3.72338e-16	
      9721.90000	      3.77094e-16	
      9723.80000	      3.80488e-16	
      9725.70000	      3.82437e-16	
      9727.60000	      3.97284e-16	
      9729.50000	      4.16718e-16	
      9731.40000	      3.98889e-16	
      9733.30000	      3.95415e-16	
      9735.20000	      3.96573e-16	
      9737.10000	      3.95646e-16	
      9739.00000	      3.91781e-16	
      9740.90000	      3.87355e-16	
      9742.80000	      3.98244e-16	
      9744.70000	      4.00987e-16	
      9746.60000	      4.17784e-16	
      9748.50000	      4.01582e-16	
      9750.40000	      3.99701e-16	
      9752.30000	      3.95504e-16	
      9754.20000	      4.04426e-16	
      9756.10000	      4.03202e-16	
      9758.00000	      3.91746e-16	
      9759.90000	      4.01414e-16	
      9761.80000	      4.14506e-16	
      9763.70000	      4.17752e-16	
      9765.60000	      4.18355e-16	
      9767.50000	      4.23698e-16	
      9769.40000	      4.22191e-16	
      9771.30000	      4.29611e-16	
      9773.20000	      4.23052e-16	
      9775.10000	      4.20916e-16	
      9777.00000	      4.05428e-16	
      9778.90000	      4.04217e-16	
      9780.80000	      4.04376e-16	
      9782.70000	      4.12177e-16	
      9784.60000	      4.10999e-16	
      9786.50000	      3.92069e-16	
      9788.40000	      3.82181e-16	
      9790.30000	      3.90357e-16	
      9792.20000	      4.05260e-16	
      9794.10000	      4.15963e-16	
      9796.00000	      4.33819e-16	
      9797.90000	      4.34420e-16	
      9799.80000	      4.17633e-16	
      9801.70000	      4.19313e-16	
      9803.60000	      4.34289e-16	
      9805.50000	      4.43772e-16	
      9807.40000	      4.50499e-16	
      9809.30000	      4.39531e-16	
      9811.20000	      4.28017e-16	
      9813.10000	      4.20503e-16	
      9815.00000	      4.27728e-16	
      9816.90000	      4.24487e-16	
      9818.80000	      4.15324e-16	
      9820.70000	      4.22612e-16	
      9822.60000	      4.28301e-16	
      9824.50000	      4.29892e-16	
      9826.40000	      4.23077e-16	
      9828.30000	      4.31527e-16	
      9830.20000	      4.26163e-16	
      9832.10000	      4.25433e-16	
      9834.00000	      4.37043e-16	
      9835.90000	      4.44440e-16	
      9837.80000	      4.39687e-16	
      9839.70000	      4.44722e-16	
      9841.60000	      4.44692e-16	
      9843.50000	      4.31945e-16	
      9845.40000	      4.50422e-16	
      9847.30000	      4.48410e-16	
      9849.20000	      4.30370e-16	
      9851.10000	      4.47524e-16	
      9853.00000	      4.52301e-16	
      9854.90000	      4.51680e-16	
      9856.80000	      4.53543e-16	
      9858.70000	      4.73353e-16	
      9860.60000	      4.79857e-16	
      9862.50000	      4.85433e-16	
      9864.40000	      4.66709e-16	
      9866.30000	      4.74650e-16	
      9868.20000	      4.86383e-16	
      9870.10000	      5.01469e-16	
      9872.00000	      5.12148e-16	
      9873.90000	      4.88151e-16	
      9875.80000	      4.64477e-16	
      9877.70000	      4.83151e-16	
      9879.60000	      4.82681e-16	
      9881.50000	      5.10392e-16	
      9883.40000	      5.23714e-16	
      9885.30000	      5.06832e-16	
      9887.20000	      4.73584e-16	
      9889.10000	      4.47281e-16	
      9891.00000	      4.15107e-16	
      9892.90000	      3.73490e-16	
      9894.80000	      3.43750e-16	
      9896.70000	      3.21055e-16	
      9898.60000	      2.95191e-16	
      9900.50000	      2.88308e-16	
      9902.40000	      2.66599e-16	
      9904.30000	      2.65732e-16	
      9906.20000	      2.60284e-16	
      9908.10000	      2.25709e-16	
      9910.00000	      2.06356e-16	
      9911.90000	      2.12885e-16	
      9913.80000	      1.90871e-16	
      9915.70000	      1.92651e-16	
      9917.60000	      2.15404e-16	
      9919.50000	      2.26254e-16	
      9921.40000	      2.35155e-16	
      9923.30000	      2.45845e-16	
      9925.20000	      2.55965e-16	
      9927.10000	      2.65745e-16	
      9929.00000	      2.66027e-16	
      9930.90000	      2.71528e-16	
      9932.80000	      2.84927e-16	
      9934.70000	      2.98981e-16	
      9936.60000	      2.92608e-16	
      9938.50000	      2.86367e-16	
      9940.40000	      2.93569e-16	
      9942.30000	      2.87182e-16	
      9944.20000	      2.90603e-16	
      9946.10000	      3.22069e-16	
      9948.00000	      3.24574e-16	
      9949.90000	      3.38196e-16	
      9951.80000	      3.38371e-16	
      9953.70000	      3.35347e-16	
      9955.60000	      3.60152e-16	
      9957.50000	      3.74341e-16	
      9959.40000	      3.71931e-16	
      9961.30000	      4.00155e-16	
      9963.20000	      3.78509e-16	
      9965.10000	      3.49150e-16	
      9967.00000	      3.26789e-16	
      9968.90000	      2.98135e-16	
      9970.80000	      2.87674e-16	
      9972.70000	      2.99846e-16	
      9974.60000	      3.21802e-16	
      9976.50000	      3.26992e-16	
      9978.40000	      3.15091e-16	
      9980.30000	      3.01868e-16	
      9982.20000	      3.20152e-16	
      9984.10000	      3.24753e-16	
      9986.00000	      3.11373e-16	
      9987.90000	      3.09942e-16	
      9989.80000	      3.26953e-16	
      9991.70000	      3.02515e-16	
      9993.60000	      3.02049e-16	
      9995.50000	      3.37325e-16	
      9997.40000	      3.64358e-16	
      9999.30000	      3.73793e-16	
     10001.20000	      3.73751e-16	
     10003.10000	      3.75678e-16	
     10005.00000	      3.60836e-16	
     10006.90000	      3.60152e-16	
     10008.80000	      3.89123e-16	
     10010.70000	      3.90269e-16	
     10012.60000	      4.24384e-16	
     10014.50000	      4.14648e-16	
     10016.40000	      3.73277e-16	
     10018.30000	      3.76231e-16	
     10020.20000	      3.88372e-16	
     10022.10000	      4.24523e-16	
     10024.00000	      4.21537e-16	
     10025.90000	      4.02467e-16	
     10027.80000	      3.90728e-16	
     10029.70000	      3.77895e-16	
     10031.60000	      3.65063e-16	
     10033.50000	      3.51857e-16	
     10035.40000	      3.54519e-16	
     10037.30000	      3.81722e-16	
     10039.20000	      4.05708e-16	
     10041.10000	      3.97379e-16	
     10043.00000	      3.90847e-16	
     10044.90000	      3.70492e-16	
     10046.80000	      3.44405e-16	
     10048.70000	      3.23390e-16	
     10050.60000	      3.03366e-16	
     10052.50000	      3.09234e-16	
     10054.40000	      3.24571e-16	
     10056.30000	      3.41730e-16	
     10058.20000	      3.38212e-16	
     10060.10000	      3.65205e-16	
     10062.00000	      4.07647e-16	
     10063.90000	      4.06861e-16	
     10065.80000	      3.99050e-16	
     10067.70000	      3.88149e-16	
     10069.60000	      3.99954e-16	
     10071.50000	      4.10171e-16	
     10073.40000	      4.45948e-16	
     10075.30000	      4.26944e-16	
     10077.20000	      4.18149e-16	
     10079.10000	      4.71405e-16	
     10081.00000	      4.80034e-16	
     10082.90000	      4.56254e-16	
     10084.80000	      4.26770e-16	
     10086.70000	      4.22715e-16	
     10088.60000	      4.06389e-16	
     10090.50000	      4.36631e-16	
     10092.40000	      4.74145e-16	
     10094.30000	      4.93233e-16	
     10096.20000	      5.47059e-16	
     10098.10000	      5.71933e-16	
#time:0.159153
