# Keck LRIS spectra of late-M, L and T dwarfs
# spty = L6  (Spectral type)
#
#     WAVELENGTH	#            FLUX	
#     (ANGSTROM)	#   (ERG/CM2/S/A)	
################	#################	
      6300.00000	     -4.48996e-19	
      6301.89845	     -5.39926e-19	
      6303.79690	     -3.66837e-20	
      6305.69535	     -2.02167e-19	
      6307.59380	     -9.74258e-20	
      6309.49225	     -5.91577e-21	
      6311.39070	     -1.11778e-20	
      6313.28914	      1.98357e-20	
      6315.18759	      1.12914e-19	
      6317.08604	      5.04731e-21	
      6318.98449	     -1.45143e-19	
      6320.88294	     -9.70624e-20	
      6322.78139	     -8.94758e-20	
      6324.67984	     -1.54375e-19	
      6326.57829	     -1.38724e-19	
      6328.47674	      2.00215e-19	
      6330.37519	     -1.07935e-19	
      6332.27364	     -9.46500e-20	
      6334.17209	     -1.31648e-19	
      6336.07054	     -1.86427e-19	
      6337.96898	     -4.09168e-20	
      6339.86743	     -2.00213e-19	
      6341.76588	     -2.99279e-20	
      6343.66433	     -2.63816e-20	
      6345.56278	     -1.42715e-19	
      6347.46123	      2.20362e-20	
      6349.35968	      8.41485e-20	
      6351.25813	      8.86220e-20	
      6353.15658	      3.98393e-21	
      6355.05503	      1.77516e-20	
      6356.95348	      2.38844e-19	
      6358.85193	      3.71189e-19	
      6360.75038	     -8.30993e-20	
      6362.64882	     -2.80548e-19	
      6364.54727	     -6.34628e-20	
      6366.44572	      3.83721e-20	
      6368.34417	      2.27540e-19	
      6370.24262	      2.54228e-19	
      6372.14107	      2.44403e-19	
      6374.03952	     -3.35991e-19	
      6375.93797	      3.75326e-18	
      6377.83642	      8.06999e-18	
      6379.73487	      3.16253e-18	
      6381.63332	     -6.69389e-21	
      6383.53177	     -2.13058e-19	
      6385.43022	     -3.48757e-19	
      6387.32866	      4.64815e-20	
      6389.22711	      9.77789e-20	
      6391.12556	     -2.25458e-19	
      6393.02401	     -1.67770e-19	
      6394.92246	     -1.48871e-19	
      6396.82091	     -1.48215e-19	
      6398.71936	     -1.90665e-19	
      6400.61781	     -2.28320e-19	
      6402.51626	      9.47941e-20	
      6404.41471	     -7.65754e-20	
      6406.31316	     -2.97008e-20	
      6408.21161	      6.36435e-20	
      6410.11006	      3.03921e-19	
      6412.00850	      2.98851e-19	
      6413.90695	      1.91857e-19	
      6415.80540	     -6.85248e-20	
      6417.70385	     -3.10320e-19	
      6419.60230	     -2.10765e-19	
      6421.50075	     -1.93301e-19	
      6423.39920	      7.64827e-20	
      6425.29765	      1.59038e-19	
      6427.19610	     -3.50131e-20	
      6429.09455	     -2.32664e-19	
      6430.99300	     -1.75109e-19	
      6432.89145	      1.63568e-19	
      6434.78989	     -3.85478e-19	
      6436.68834	     -6.04742e-19	
      6438.58679	     -7.38963e-20	
      6440.48524	     -5.45878e-19	
      6442.38369	     -4.23024e-19	
      6444.28214	      2.34717e-19	
      6446.18059	      1.69905e-20	
      6448.07904	      2.08330e-19	
      6449.97749	      1.33408e-19	
      6451.87594	      1.18787e-19	
      6453.77439	      1.89543e-19	
      6455.67284	      2.81944e-19	
      6457.57129	      4.66366e-19	
      6459.46973	      3.29945e-19	
      6461.36818	      9.95564e-20	
      6463.26663	     -3.56134e-19	
      6465.16508	     -2.39962e-19	
      6467.06353	      4.06841e-19	
      6468.96198	      3.52890e-19	
      6470.86043	     -1.43432e-19	
      6472.75888	     -1.97623e-19	
      6474.65733	     -1.68581e-19	
      6476.55578	      1.40485e-19	
      6478.45423	      1.80600e-19	
      6480.35268	      5.79626e-19	
      6482.25113	      2.23993e-19	
      6484.14957	      1.50742e-19	
      6486.04802	      9.56183e-20	
      6487.94647	     -2.20507e-19	
      6489.84492	     -6.23180e-20	
      6491.74337	      2.96454e-20	
      6493.64182	      1.53024e-19	
      6495.54027	     -1.80376e-20	
      6497.43872	     -7.21594e-20	
      6499.33717	      8.33030e-20	
      6501.23562	     -2.66030e-20	
      6503.13407	     -3.52774e-20	
      6505.03252	     -2.65593e-19	
      6506.93097	     -1.17701e-19	
      6508.82941	      3.85502e-19	
      6510.72786	      2.57350e-19	
      6512.62631	      2.85127e-19	
      6514.52476	      1.33224e-20	
      6516.42321	      8.53842e-20	
      6518.32166	      3.89834e-19	
      6520.22011	      1.67655e-19	
      6522.11856	     -1.27535e-19	
      6524.01701	      2.25162e-19	
      6525.91546	      2.50753e-19	
      6527.81391	     -1.78869e-19	
      6529.71236	     -5.69376e-20	
      6531.61081	      5.33537e-20	
      6533.50925	      3.18888e-19	
      6535.40770	      3.59200e-19	
      6537.30615	      3.60156e-19	
      6539.20460	      9.95496e-20	
      6541.10305	      2.93716e-19	
      6543.00150	      4.29237e-19	
      6544.89995	      6.70731e-19	
      6546.79840	      4.17508e-19	
      6548.69685	     -9.93802e-20	
      6550.59530	     -7.83597e-20	
      6552.49375	      3.58943e-19	
      6554.39220	      3.28279e-19	
      6556.29065	      2.80368e-19	
      6558.18909	      5.14403e-19	
      6560.08754	      7.03379e-19	
      6561.98599	      6.26701e-19	
      6563.88444	      5.23662e-19	
      6565.78289	      3.16061e-19	
      6567.68134	      4.88892e-19	
      6569.57979	      8.11613e-19	
      6571.47824	      4.13693e-19	
      6573.37669	     -1.33304e-20	
      6575.27514	      2.01040e-19	
      6577.17359	      3.96178e-19	
      6579.07204	      7.94636e-19	
      6580.97049	      3.04480e-19	
      6582.86893	      1.59641e-19	
      6584.76738	      7.59517e-19	
      6586.66583	      5.26083e-19	
      6588.56428	      5.41377e-19	
      6590.46273	      8.63957e-19	
      6592.36118	      5.81432e-19	
      6594.25963	      6.48103e-19	
      6596.15808	      4.61096e-19	
      6598.05653	      1.20728e-19	
      6599.95498	      2.40045e-19	
      6601.85343	      5.07143e-19	
      6603.75188	      4.88450e-19	
      6605.65033	      7.35762e-19	
      6607.54877	      6.04574e-19	
      6609.44722	      5.81646e-19	
      6611.34567	      9.14498e-19	
      6613.24412	      8.32596e-19	
      6615.14257	      5.77085e-19	
      6617.04102	      3.57596e-19	
      6618.93947	      5.40425e-19	
      6620.83792	      6.85288e-19	
      6622.73637	      8.74732e-19	
      6624.63482	      6.87556e-19	
      6626.53327	      7.94645e-19	
      6628.43172	      9.74760e-19	
      6630.33017	      4.81155e-19	
      6632.22861	      9.12918e-19	
      6634.12706	      6.24710e-19	
      6636.02551	      5.43373e-19	
      6637.92396	      6.98642e-19	
      6639.82241	      3.97202e-19	
      6641.72086	      5.18136e-19	
      6643.61931	      7.33532e-19	
      6645.51776	      9.02836e-19	
      6647.41621	      4.79078e-19	
      6649.31466	      1.04582e-19	
      6651.21311	      4.86500e-19	
      6653.11156	      6.75816e-19	
      6655.01001	      1.16144e-18	
      6656.90845	      6.91293e-19	
      6658.80690	      1.04341e-18	
      6660.70535	      6.79123e-19	
      6662.60380	      3.16341e-19	
      6664.50225	      7.81730e-19	
      6666.40070	      9.93398e-19	
      6668.29915	      1.14158e-18	
      6670.19760	      8.29827e-19	
      6672.09605	      6.16405e-19	
      6673.99450	      9.66148e-19	
      6675.89295	      7.01365e-19	
      6677.79140	      7.88801e-19	
      6679.68984	      6.63463e-19	
      6681.58829	      6.85930e-19	
      6683.48674	      9.46586e-19	
      6685.38519	      8.62133e-19	
      6687.28364	      6.02873e-19	
      6689.18209	      5.51098e-19	
      6691.08054	      6.04981e-19	
      6692.97899	      1.05143e-18	
      6694.87744	      7.99578e-19	
      6696.77589	      5.19254e-19	
      6698.67434	      4.76283e-19	
      6700.57279	      5.64449e-19	
      6702.47124	      3.74328e-19	
      6704.36968	      1.76316e-19	
      6706.26813	      3.80195e-19	
      6708.16658	      1.75573e-19	
      6710.06503	     -2.47347e-19	
      6711.96348	     -1.11974e-19	
      6713.86193	      9.96972e-20	
      6715.76038	     -1.02941e-19	
      6717.65883	      1.36453e-19	
      6719.55728	      3.96350e-19	
      6721.45573	      9.00858e-19	
      6723.35418	      6.23264e-19	
      6725.25263	      7.80332e-19	
      6727.15108	      1.07358e-18	
      6729.04952	      6.78869e-19	
      6730.94797	      7.94605e-19	
      6732.84642	      9.70017e-19	
      6734.74487	      1.18386e-18	
      6736.64332	      1.12004e-18	
      6738.54177	      1.07611e-18	
      6740.44022	      1.05059e-18	
      6742.33867	      1.10245e-18	
      6744.23712	      8.97950e-19	
      6746.13557	      1.15557e-18	
      6748.03402	      1.08567e-18	
      6749.93247	      9.98088e-19	
      6751.83092	      1.36418e-18	
      6753.72936	      1.31168e-18	
      6755.62781	      1.18704e-18	
      6757.52626	      1.42737e-18	
      6759.42471	      1.43119e-18	
      6761.32316	      1.35962e-18	
      6763.22161	      1.44375e-18	
      6765.12006	      1.28075e-18	
      6767.01851	      1.27551e-18	
      6768.91696	      1.43137e-18	
      6770.81541	      1.50487e-18	
      6772.71386	      1.49813e-18	
      6774.61231	      1.34181e-18	
      6776.51076	      1.34822e-18	
      6778.40920	      1.35934e-18	
      6780.30765	      1.23271e-18	
      6782.20610	      1.48889e-18	
      6784.10455	      1.27225e-18	
      6786.00300	      1.58246e-18	
      6787.90145	      1.64123e-18	
      6789.79990	      1.38263e-18	
      6791.69835	      1.16015e-18	
      6793.59680	      1.16404e-18	
      6795.49525	      1.50690e-18	
      6797.39370	      1.23691e-18	
      6799.29215	      1.13850e-18	
      6801.19060	      1.48332e-18	
      6803.08904	      1.68768e-18	
      6804.98749	      1.40249e-18	
      6806.88594	      1.32641e-18	
      6808.78439	      1.61356e-18	
      6810.68284	      1.28847e-18	
      6812.58129	      1.34819e-18	
      6814.47974	      1.41479e-18	
      6816.37819	      1.41524e-18	
      6818.27664	      1.20287e-18	
      6820.17509	      1.20050e-18	
      6822.07354	      1.24956e-18	
      6823.97199	      1.46760e-18	
      6825.87044	      1.27786e-18	
      6827.76888	      8.96327e-19	
      6829.66733	      1.29554e-18	
      6831.56578	      1.86422e-18	
      6833.46423	      1.30457e-18	
      6835.36268	      5.81768e-19	
      6837.26113	      1.25912e-18	
      6839.15958	      1.38579e-18	
      6841.05803	      1.35894e-18	
      6842.95648	      1.53392e-18	
      6844.85493	      1.32053e-18	
      6846.75338	      1.42134e-18	
      6848.65183	      1.45738e-18	
      6850.55028	      7.43823e-19	
      6852.44872	      2.14112e-19	
      6854.34717	      9.81971e-19	
      6856.24562	      1.11945e-18	
      6858.14407	      1.00829e-18	
      6860.04252	      9.44196e-19	
      6861.94097	      9.55474e-19	
      6863.83942	      8.34639e-19	
      6865.73787	      1.34044e-18	
      6867.63632	      1.27888e-18	
      6869.53477	      9.44402e-19	
      6871.43322	      1.14148e-18	
      6873.33167	      1.09703e-18	
      6875.23012	      9.00745e-19	
      6877.12856	      1.07672e-18	
      6879.02701	      8.13081e-19	
      6880.92546	      8.06311e-19	
      6882.82391	      1.14539e-18	
      6884.72236	      1.23844e-18	
      6886.62081	      8.08325e-19	
      6888.51926	      1.10520e-18	
      6890.41771	      1.44090e-18	
      6892.31616	      1.18034e-18	
      6894.21461	      7.58927e-19	
      6896.11306	      9.41444e-19	
      6898.01151	      8.51159e-19	
      6899.90995	      9.56578e-19	
      6901.80840	      1.09422e-18	
      6903.70685	      8.60749e-19	
      6905.60530	      9.00452e-19	
      6907.50375	      8.11821e-19	
      6909.40220	      6.99932e-19	
      6911.30065	      1.04940e-18	
      6913.19910	      1.03901e-18	
      6915.09755	      1.01442e-18	
      6916.99600	      9.02742e-19	
      6918.89445	      1.14246e-18	
      6920.79290	      9.68542e-19	
      6922.69135	      7.74202e-19	
      6924.58979	      7.08172e-19	
      6926.48824	      9.92949e-19	
      6928.38669	      9.83642e-19	
      6930.28514	      1.30270e-18	
      6932.18359	      1.03529e-18	
      6934.08204	      1.22276e-18	
      6935.98049	      9.89369e-19	
      6937.87894	      1.17560e-18	
      6939.77739	      9.91486e-19	
      6941.67584	      1.57831e-18	
      6943.57429	      1.52828e-18	
      6945.47274	      9.60277e-19	
      6947.37119	      6.93427e-19	
      6949.26963	      7.71930e-19	
      6951.16808	      1.00201e-18	
      6953.06653	      1.05219e-18	
      6954.96498	      1.07020e-18	
      6956.86343	      1.27229e-18	
      6958.76188	      1.19957e-18	
      6960.66033	      1.16893e-18	
      6962.55878	      9.22281e-19	
      6964.45723	      1.16701e-18	
      6966.35568	      1.05249e-18	
      6968.25413	      1.27378e-18	
      6970.15258	      1.30369e-18	
      6972.05103	      7.72791e-19	
      6973.94947	      1.15807e-18	
      6975.84792	      1.33547e-18	
      6977.74637	      7.43529e-19	
      6979.64482	      1.21747e-18	
      6981.54327	      1.21495e-18	
      6983.44172	      1.05854e-18	
      6985.34017	      1.23660e-18	
      6987.23862	      1.58389e-18	
      6989.13707	      1.30257e-18	
      6991.03552	      7.48152e-19	
      6992.93397	      9.81459e-19	
      6994.83242	      1.46408e-18	
      6996.73087	      1.04015e-18	
      6998.62931	      1.10113e-18	
      7000.52776	      1.13890e-18	
      7002.42621	      1.62345e-18	
      7004.32466	      1.52397e-18	
      7006.22311	      8.67414e-19	
      7008.12156	      1.01400e-18	
      7010.02001	      1.27715e-18	
      7011.91846	      1.06451e-18	
      7013.81691	      1.44589e-18	
      7015.71536	      1.08267e-18	
      7017.61381	      1.13236e-18	
      7019.51226	      1.37155e-18	
      7021.41071	      1.23830e-18	
      7023.30915	      1.53311e-18	
      7025.20760	      1.52747e-18	
      7027.10605	      1.35709e-18	
      7029.00450	      1.53120e-18	
      7030.90295	      1.69948e-18	
      7032.80140	      1.49806e-18	
      7034.69985	      1.19076e-18	
      7036.59830	      1.16105e-18	
      7038.49675	      1.12882e-18	
      7040.39520	      1.25776e-18	
      7042.29365	      1.21331e-18	
      7044.19210	      1.52687e-18	
      7046.09055	      1.38601e-18	
      7047.98899	      1.28833e-18	
      7049.88744	      1.16255e-18	
      7051.78589	      1.61832e-18	
      7053.68434	      1.40925e-18	
      7055.58279	      1.03494e-18	
      7057.48124	      1.27222e-18	
      7059.37969	      1.69509e-18	
      7061.27814	      1.48969e-18	
      7063.17659	      1.20152e-18	
      7065.07504	      1.09642e-18	
      7066.97349	      1.43234e-18	
      7068.87194	      1.30165e-18	
      7070.77039	      1.17813e-18	
      7072.66883	      1.23107e-18	
      7074.56728	      1.64929e-18	
      7076.46573	      1.80346e-18	
      7078.36418	      1.35657e-18	
      7080.26263	      1.30222e-18	
      7082.16108	      1.28746e-18	
      7084.05953	      1.49226e-18	
      7085.95798	      1.65408e-18	
      7087.85643	      1.65407e-18	
      7089.75488	      1.69238e-18	
      7091.65333	      1.72941e-18	
      7093.55178	      1.48187e-18	
      7095.45023	      1.52635e-18	
      7097.34867	      1.59828e-18	
      7099.24712	      1.60213e-18	
      7101.14557	      1.92704e-18	
      7103.04402	      2.02046e-18	
      7104.94247	      1.80237e-18	
      7106.84092	      1.98864e-18	
      7108.73937	      1.74894e-18	
      7110.63782	      1.36440e-18	
      7112.53627	      1.60424e-18	
      7114.43472	      1.53364e-18	
      7116.33317	      1.17190e-18	
      7118.23162	      1.65826e-18	
      7120.13007	      1.60211e-18	
      7122.02851	      1.54535e-18	
      7123.92696	      1.77242e-18	
      7125.82541	      1.63047e-18	
      7127.72386	      1.91940e-18	
      7129.62231	      1.86962e-18	
      7131.52076	      1.72902e-18	
      7133.41921	      1.90424e-18	
      7135.31766	      2.02099e-18	
      7137.21611	      1.92544e-18	
      7139.11456	      1.51190e-18	
      7141.01301	      1.55049e-18	
      7142.91146	      1.81629e-18	
      7144.80990	      1.61141e-18	
      7146.70835	      1.75757e-18	
      7148.60680	      1.89742e-18	
      7150.50525	      1.56378e-18	
      7152.40370	      1.68235e-18	
      7154.30215	      1.77837e-18	
      7156.20060	      1.85211e-18	
      7158.09905	      1.73355e-18	
      7159.99750	      1.48328e-18	
      7161.89595	      1.53129e-18	
      7163.79440	      1.54608e-18	
      7165.69285	      1.88470e-18	
      7167.59130	      1.87950e-18	
      7169.48974	      1.90212e-18	
      7171.38819	      1.91065e-18	
      7173.28664	      1.87487e-18	
      7175.18509	      2.09610e-18	
      7177.08354	      1.63288e-18	
      7178.98199	      1.69131e-18	
      7180.88044	      2.11883e-18	
      7182.77889	      1.95615e-18	
      7184.67734	      1.75782e-18	
      7186.57579	      1.49604e-18	
      7188.47424	      1.53905e-18	
      7190.37269	      1.84478e-18	
      7192.27114	      1.79078e-18	
      7194.16958	      1.97631e-18	
      7196.06803	      1.86449e-18	
      7197.96648	      1.75870e-18	
      7199.86493	      1.92853e-18	
      7201.76338	      2.14473e-18	
      7203.66183	      1.60332e-18	
      7205.56028	      1.59972e-18	
      7207.45873	      1.62298e-18	
      7209.35718	      1.70074e-18	
      7211.25563	      1.82866e-18	
      7213.15408	      1.77388e-18	
      7215.05253	      1.88555e-18	
      7216.95098	      1.93107e-18	
      7218.84942	      1.82607e-18	
      7220.74787	      1.74483e-18	
      7222.64632	      1.51942e-18	
      7224.54477	      1.88209e-18	
      7226.44322	      1.91813e-18	
      7228.34167	      1.77858e-18	
      7230.24012	      1.88309e-18	
      7232.13857	      1.97584e-18	
      7234.03702	      1.87390e-18	
      7235.93547	      2.37208e-18	
      7237.83392	      1.75272e-18	
      7239.73237	      2.14535e-18	
      7241.63082	      1.05839e-18	
      7243.52926	      1.23686e-18	
      7245.42771	      1.39414e-18	
      7247.32616	      2.17465e-18	
      7249.22461	      1.56955e-18	
      7251.12306	      1.19828e-18	
      7253.02151	      1.53738e-18	
      7254.91996	      1.28079e-18	
      7256.81841	      1.45187e-18	
      7258.71686	      1.78890e-18	
      7260.61531	      1.73693e-18	
      7262.51376	      1.55601e-18	
      7264.41221	      1.42351e-18	
      7266.31066	      1.93661e-18	
      7268.20910	      1.91324e-18	
      7270.10755	      1.71307e-18	
      7272.00600	      1.71473e-18	
      7273.90445	      1.16881e-18	
      7275.80290	      1.14796e-18	
      7277.70135	      1.40679e-18	
      7279.59980	      1.69646e-18	
      7281.49825	      1.92553e-18	
      7283.39670	      1.66800e-18	
      7285.29515	      1.55406e-18	
      7287.19360	      1.44732e-18	
      7289.09205	      1.56335e-18	
      7290.99050	      1.89731e-18	
      7292.88894	      1.91625e-18	
      7294.78739	      1.80191e-18	
      7296.68584	      1.63343e-18	
      7298.58429	      1.76488e-18	
      7300.48274	      1.78704e-18	
      7302.38119	      1.56713e-18	
      7304.27964	      1.83356e-18	
      7306.17809	      1.76187e-18	
      7308.07654	      1.80353e-18	
      7309.97499	      1.97438e-18	
      7311.87344	      1.97002e-18	
      7313.77189	      1.18314e-18	
      7315.67034	      1.17489e-18	
      7317.56878	      1.51702e-18	
      7319.46723	      1.83360e-18	
      7321.36568	      1.48778e-18	
      7323.26413	      1.81907e-18	
      7325.16258	      1.62202e-18	
      7327.06103	      1.75895e-18	
      7328.95948	      1.63652e-18	
      7330.85793	      1.75539e-18	
      7332.75638	      1.40396e-18	
      7334.65483	      1.31250e-18	
      7336.55328	      1.23448e-18	
      7338.45173	      1.90380e-18	
      7340.35018	      1.60550e-18	
      7342.24862	      1.95012e-18	
      7344.14707	      1.55393e-18	
      7346.04552	      1.13354e-18	
      7347.94397	      1.56954e-18	
      7349.84242	      1.68483e-18	
      7351.74087	      1.81508e-18	
      7353.63932	      1.85516e-18	
      7355.53777	      1.88451e-18	
      7357.43622	      1.59712e-18	
      7359.33467	      1.47832e-18	
      7361.23312	      1.44599e-18	
      7363.13157	      1.18386e-18	
      7365.03002	      1.69402e-18	
      7366.92846	      1.66197e-18	
      7368.82691	      1.66385e-18	
      7370.72536	      1.59098e-18	
      7372.62381	      1.82286e-18	
      7374.52226	      1.61723e-18	
      7376.42071	      1.44698e-18	
      7378.31916	      1.68869e-18	
      7380.21761	      1.47065e-18	
      7382.11606	      1.56913e-18	
      7384.01451	      1.81310e-18	
      7385.91296	      1.88467e-18	
      7387.81141	      1.61171e-18	
      7389.70985	      1.72411e-18	
      7391.60830	      1.64201e-18	
      7393.50675	      1.52606e-18	
      7395.40520	      3.27013e-19	
      7397.30365	     -3.69093e-18	
      7399.20210	     -7.56179e-19	
      7401.10055	      1.00595e-18	
      7402.99900	      1.24154e-18	
      7404.89745	      1.27068e-18	
      7406.79590	      1.45851e-18	
      7408.69435	      1.83115e-18	
      7410.59280	      1.57429e-18	
      7412.49125	      1.56745e-18	
      7414.38969	      1.56848e-18	
      7416.28814	      1.48037e-18	
      7418.18659	      1.42421e-18	
      7420.08504	      1.36383e-18	
      7421.98349	      1.39196e-18	
      7423.88194	      1.46844e-18	
      7425.78039	      1.31373e-18	
      7427.67884	      6.95965e-19	
      7429.57729	      4.49094e-19	
      7431.47574	      1.36368e-18	
      7433.37419	      1.71508e-18	
      7435.27264	      7.24767e-20	
      7437.17109	     -1.45725e-19	
      7439.06953	      1.28465e-18	
      7440.96798	      1.70660e-18	
      7442.86643	      1.33834e-18	
      7444.76488	      1.18022e-18	
      7446.66333	      1.34198e-18	
      7448.56178	      1.06965e-18	
      7450.46023	      9.97911e-19	
      7452.35868	      1.20189e-18	
      7454.25713	      1.08687e-18	
      7456.15558	      9.54354e-19	
      7458.05403	      1.47203e-18	
      7459.95248	      1.29713e-18	
      7461.85093	      9.18755e-19	
      7463.74937	      9.21335e-19	
      7465.64782	      1.24525e-18	
      7467.54627	      1.14807e-18	
      7469.44472	      8.31647e-19	
      7471.34317	      1.36401e-18	
      7473.24162	      1.44443e-18	
      7475.14007	      9.87199e-19	
      7477.03852	      7.95214e-19	
      7478.93697	      1.19524e-18	
      7480.83542	      1.05929e-18	
      7482.73387	      7.34485e-19	
      7484.63232	      7.92224e-19	
      7486.53077	      1.02746e-18	
      7488.42921	      1.22427e-18	
      7490.32766	      1.14339e-18	
      7492.22611	      7.47188e-19	
      7494.12456	      8.25820e-19	
      7496.02301	      1.12754e-18	
      7497.92146	      1.12126e-18	
      7499.81991	      1.29782e-18	
      7501.71836	      9.63641e-19	
      7503.61681	      7.30641e-19	
      7505.51526	      7.10682e-19	
      7507.41371	      1.01916e-18	
      7509.31216	      1.19833e-18	
      7511.21061	      8.17816e-19	
      7513.10905	      9.22358e-19	
      7515.00750	      1.02067e-18	
      7516.90595	      7.94626e-19	
      7518.80440	      5.87098e-19	
      7520.70285	      3.28694e-19	
      7522.60130	      2.83192e-19	
      7524.49975	      7.99129e-19	
      7526.39820	      7.01587e-19	
      7528.29665	      3.84931e-19	
      7530.19510	      5.14178e-19	
      7532.09355	      6.01062e-19	
      7533.99200	      9.09848e-19	
      7535.89045	      6.24195e-19	
      7537.78889	      5.39598e-19	
      7539.68734	      6.16229e-19	
      7541.58579	      3.98808e-19	
      7543.48424	      6.09167e-19	
      7545.38269	      8.15731e-19	
      7547.28114	      9.87625e-19	
      7549.17959	      5.53967e-19	
      7551.07804	      3.75489e-19	
      7552.97649	      4.13686e-19	
      7554.87494	      9.14740e-21	
      7556.77339	     -1.19859e-18	
      7558.67184	      1.71847e-20	
      7560.57029	      5.46369e-19	
      7562.46873	      3.41772e-19	
      7564.36718	      6.97326e-19	
      7566.26563	      7.49959e-19	
      7568.16408	      7.81439e-19	
      7570.06253	      3.06889e-19	
      7571.96098	      3.16702e-19	
      7573.85943	      5.41105e-19	
      7575.75788	      2.41765e-19	
      7577.65633	      3.71184e-19	
      7579.55478	      5.28048e-19	
      7581.45323	      5.97289e-19	
      7583.35168	      3.50487e-19	
      7585.25013	      4.15866e-19	
      7587.14857	      1.55645e-20	
      7589.04702	     -5.40447e-20	
      7590.94547	      3.36618e-19	
      7592.84392	      1.77862e-19	
      7594.74237	      4.38110e-19	
      7596.64082	      2.32027e-19	
      7598.53927	      4.71561e-20	
      7600.43772	     -3.66748e-20	
      7602.33617	     -5.20226e-20	
      7604.23462	      8.00372e-20	
      7606.13307	     -3.98368e-20	
      7608.03152	     -1.65072e-19	
      7609.92996	     -5.46853e-20	
      7611.82841	     -8.70002e-20	
      7613.72686	     -3.34698e-19	
      7615.62531	     -1.41965e-19	
      7617.52376	     -1.83905e-19	
      7619.42221	     -2.68654e-19	
      7621.32066	     -1.44381e-19	
      7623.21911	     -7.92962e-20	
      7625.11756	     -6.08264e-20	
      7627.01601	     -3.15509e-19	
      7628.91446	     -3.18557e-19	
      7630.81291	     -1.63493e-19	
      7632.71136	      7.82287e-20	
      7634.60980	      1.78548e-20	
      7636.50825	      1.22116e-19	
      7638.40670	      5.88297e-20	
      7640.30515	     -2.57337e-19	
      7642.20360	     -5.22031e-19	
      7644.10205	     -2.83063e-19	
      7646.00050	     -1.86775e-19	
      7647.89895	     -3.23476e-19	
      7649.79740	     -4.60447e-19	
      7651.69585	     -2.53324e-19	
      7653.59430	     -3.21231e-19	
      7655.49275	     -3.00231e-19	
      7657.39120	     -3.20450e-19	
      7659.28964	     -3.90977e-19	
      7661.18809	     -7.13283e-19	
      7663.08654	     -6.14900e-19	
      7664.98499	     -2.80083e-19	
      7666.88344	     -4.63679e-19	
      7668.78189	     -3.05106e-19	
      7670.68034	     -2.38562e-19	
      7672.57879	     -3.33136e-19	
      7674.47724	     -3.73111e-19	
      7676.37569	     -2.24026e-19	
      7678.27414	     -4.85869e-20	
      7680.17259	     -6.39736e-20	
      7682.07104	     -3.80215e-19	
      7683.96948	     -2.92270e-19	
      7685.86793	     -4.74656e-19	
      7687.76638	     -2.51158e-19	
      7689.66483	     -8.71155e-20	
      7691.56328	     -1.65221e-19	
      7693.46173	     -2.50728e-19	
      7695.36018	     -6.78275e-19	
      7697.25863	     -4.68422e-19	
      7699.15708	     -2.62535e-19	
      7701.05553	     -4.68763e-19	
      7702.95398	     -4.13288e-19	
      7704.85243	     -2.16507e-19	
      7706.75088	     -1.00451e-19	
      7708.64932	     -3.65091e-19	
      7710.54777	     -5.09643e-19	
      7712.44622	     -7.05945e-19	
      7714.34467	     -6.35092e-19	
      7716.24312	     -7.47785e-19	
      7718.14157	     -9.06792e-19	
      7720.04002	     -4.48249e-19	
      7721.93847	     -2.29003e-19	
      7723.83692	     -1.17015e-19	
      7725.73537	      9.56107e-20	
      7727.63382	      1.49442e-19	
      7729.53227	      2.74893e-19	
      7731.43072	      1.64417e-19	
      7733.32916	      3.76039e-19	
      7735.22761	     -8.57805e-20	
      7737.12606	     -2.88998e-19	
      7739.02451	     -3.77901e-19	
      7740.92296	      8.25609e-21	
      7742.82141	      3.64049e-19	
      7744.71986	      6.57668e-19	
      7746.61831	      7.14741e-19	
      7748.51676	      1.73045e-19	
      7750.41521	      8.78317e-19	
      7752.31366	     -1.82062e-20	
      7754.21211	      6.06740e-20	
      7756.11056	      2.34894e-19	
      7758.00900	      5.03177e-19	
      7759.90745	      3.71243e-19	
      7761.80590	     -1.95346e-20	
      7763.70435	     -3.90711e-20	
      7765.60280	     -5.78753e-20	
      7767.50125	      6.40377e-20	
      7769.39970	      4.43417e-19	
      7771.29815	      3.39996e-19	
      7773.19660	      6.55597e-19	
      7775.09505	      6.96570e-19	
      7776.99350	      2.10471e-19	
      7778.89195	      3.11892e-19	
      7780.79040	      4.86108e-19	
      7782.68884	      5.42946e-19	
      7784.58729	      6.01974e-19	
      7786.48574	      6.86326e-19	
      7788.38419	      7.64046e-19	
      7790.28264	      4.31661e-19	
      7792.18109	      1.65071e-19	
      7794.07954	      4.06191e-19	
      7795.97799	      5.94161e-19	
      7797.87644	      7.19047e-19	
      7799.77489	      5.40687e-19	
      7801.67334	      2.06848e-19	
      7803.57179	      2.49453e-19	
      7805.47024	      4.02982e-20	
      7807.36868	      4.72457e-19	
      7809.26713	      1.11297e-18	
      7811.16558	      8.59458e-19	
      7813.06403	      9.58467e-19	
      7814.96248	      1.08715e-18	
      7816.86093	      6.71564e-19	
      7818.75938	      7.13952e-19	
      7820.65783	      1.09062e-18	
      7822.55628	      7.39987e-19	
      7824.45473	      1.07815e-18	
      7826.35318	      1.48311e-18	
      7828.25163	      1.47873e-18	
      7830.15008	      9.11183e-19	
      7832.04852	      1.34233e-18	
      7833.94697	      1.25862e-18	
      7835.84542	      1.19205e-18	
      7837.74387	      1.64431e-18	
      7839.64232	      1.07881e-18	
      7841.54077	      6.99497e-19	
      7843.43922	      1.27612e-18	
      7845.33767	      1.59597e-18	
      7847.23612	      1.31038e-18	
      7849.13457	      9.12301e-19	
      7851.03302	      6.33277e-19	
      7852.93147	      2.68428e-19	
      7854.82991	      8.23705e-19	
      7856.72836	      1.04028e-18	
      7858.62681	      1.93195e-18	
      7860.52526	      1.27218e-18	
      7862.42371	      1.06160e-18	
      7864.32216	      1.60182e-18	
      7866.22061	      1.52390e-18	
      7868.11906	      1.65327e-18	
      7870.01751	      1.57014e-18	
      7871.91596	      1.58931e-18	
      7873.81441	      1.46747e-18	
      7875.71286	      1.92067e-18	
      7877.61131	      1.92159e-18	
      7879.50975	      1.13916e-18	
      7881.40820	      1.54637e-18	
      7883.30665	      2.25189e-18	
      7885.20510	      1.93576e-18	
      7887.10355	      1.65586e-18	
      7889.00200	      1.33907e-18	
      7890.90045	      1.97726e-18	
      7892.79890	      1.67926e-18	
      7894.69735	      2.11165e-18	
      7896.59580	      1.96252e-18	
      7898.49425	      2.20759e-18	
      7900.39270	      2.37162e-18	
      7902.29115	      2.19059e-18	
      7904.18959	      2.20821e-18	
      7906.08804	      2.15198e-18	
      7907.98649	      1.37195e-18	
      7909.88494	      1.96921e-18	
      7911.78339	      2.91360e-18	
      7913.68184	      2.64236e-18	
      7915.58029	      2.58678e-18	
      7917.47874	      2.05598e-18	
      7919.37719	      2.14295e-18	
      7921.27564	      2.12432e-18	
      7923.17409	      1.97573e-18	
      7925.07254	      2.35349e-18	
      7926.97099	      1.82832e-18	
      7928.86943	      1.94001e-18	
      7930.76788	      2.35734e-18	
      7932.66633	      2.56801e-18	
      7934.56478	      2.59318e-18	
      7936.46323	      2.55351e-18	
      7938.36168	      2.44690e-18	
      7940.26013	      2.30070e-18	
      7942.15858	      2.26963e-18	
      7944.05703	      2.03111e-18	
      7945.95548	      1.69127e-18	
      7947.85393	      7.01941e-19	
      7949.75238	      1.55162e-19	
      7951.65083	      9.87400e-19	
      7953.54927	      2.21265e-18	
      7955.44772	      2.33985e-18	
      7957.34617	      2.89388e-18	
      7959.24462	      2.98257e-18	
      7961.14307	      2.43205e-18	
      7963.04152	      1.76186e-18	
      7964.93997	      2.06576e-18	
      7966.83842	      2.60977e-18	
      7968.73687	      2.44116e-18	
      7970.63532	      3.06692e-18	
      7972.53377	      3.07938e-18	
      7974.43222	      3.25388e-18	
      7976.33067	      2.88992e-18	
      7978.22911	      2.80699e-18	
      7980.12756	      3.38043e-18	
      7982.02601	      3.04130e-18	
      7983.92446	      3.68594e-18	
      7985.82291	      3.49186e-18	
      7987.72136	      3.64855e-18	
      7989.61981	      2.73470e-18	
      7991.51826	      1.90348e-18	
      7993.41671	      2.42056e-18	
      7995.31516	      2.94656e-18	
      7997.21361	      3.11558e-18	
      7999.11206	      3.89319e-18	
      8001.01051	      4.19955e-18	
      8002.90895	      4.01781e-18	
      8004.80740	      4.06211e-18	
      8006.70585	      3.95496e-18	
      8008.60430	      4.01042e-18	
      8010.50275	      3.86549e-18	
      8012.40120	      3.55073e-18	
      8014.29965	      3.73143e-18	
      8016.19810	      3.95012e-18	
      8018.09655	      3.89620e-18	
      8019.99500	      3.66138e-18	
      8021.89345	      3.96947e-18	
      8023.79190	      3.93654e-18	
      8025.69035	      4.30899e-18	
      8027.58879	      4.97273e-18	
      8029.48724	      4.15959e-18	
      8031.38569	      4.15839e-18	
      8033.28414	      4.14048e-18	
      8035.18259	      4.07835e-18	
      8037.08104	      4.51406e-18	
      8038.97949	      4.42098e-18	
      8040.87794	      4.25856e-18	
      8042.77639	      4.34649e-18	
      8044.67484	      4.52764e-18	
      8046.57329	      4.69773e-18	
      8048.47174	      4.50732e-18	
      8050.37019	      4.53159e-18	
      8052.26863	      4.76121e-18	
      8054.16708	      4.68246e-18	
      8056.06553	      5.00851e-18	
      8057.96398	      5.18430e-18	
      8059.86243	      4.74711e-18	
      8061.76088	      4.71692e-18	
      8063.65933	      4.44572e-18	
      8065.55778	      4.65238e-18	
      8067.45623	      4.74165e-18	
      8069.35468	      4.57147e-18	
      8071.25313	      4.81414e-18	
      8073.15158	      5.56272e-18	
      8075.05003	      5.55579e-18	
      8076.94847	      5.52280e-18	
      8078.84692	      5.23393e-18	
      8080.74537	      5.35435e-18	
      8082.64382	      5.28293e-18	
      8084.54227	      5.02340e-18	
      8086.44072	      5.14319e-18	
      8088.33917	      5.23252e-18	
      8090.23762	      5.14366e-18	
      8092.13607	      5.28801e-18	
      8094.03452	      5.73129e-18	
      8095.93297	      5.55800e-18	
      8097.83142	      5.11515e-18	
      8099.72986	      4.99883e-18	
      8101.62831	      5.59874e-18	
      8103.52676	      5.30756e-18	
      8105.42521	      5.12173e-18	
      8107.32366	      5.48346e-18	
      8109.22211	      5.45919e-18	
      8111.12056	      5.83018e-18	
      8113.01901	      6.22575e-18	
      8114.91746	      5.98366e-18	
      8116.81591	      5.48451e-18	
      8118.71436	      5.76041e-18	
      8120.61281	      6.06289e-18	
      8122.51126	      6.37119e-18	
      8124.40970	      6.58317e-18	
      8126.30815	      6.47579e-18	
      8128.20660	      6.25219e-18	
      8130.10505	      6.23607e-18	
      8132.00350	      6.21849e-18	
      8133.90195	      6.40087e-18	
      8135.80040	      6.43463e-18	
      8137.69885	      6.12903e-18	
      8139.59730	      6.65381e-18	
      8141.49575	      6.34537e-18	
      8143.39420	      6.52108e-18	
      8145.29265	      6.84078e-18	
      8147.19110	      6.06242e-18	
      8149.08954	      6.04522e-18	
      8150.98799	      6.47898e-18	
      8152.88644	      6.46016e-18	
      8154.78489	      6.44751e-18	
      8156.68334	      6.60962e-18	
      8158.58179	      6.59484e-18	
      8160.48024	      6.30661e-18	
      8162.37869	      5.85513e-18	
      8164.27714	      6.28302e-18	
      8166.17559	      6.70564e-18	
      8168.07404	      6.48778e-18	
      8169.97249	      7.01787e-18	
      8171.87094	      7.34303e-18	
      8173.76938	      7.25426e-18	
      8175.66783	      6.73007e-18	
      8177.56628	      6.39665e-18	
      8179.46473	      6.57114e-18	
      8181.36318	      6.03447e-18	
      8183.26163	      5.50190e-18	
      8185.16008	      5.44202e-18	
      8187.05853	      5.29171e-18	
      8188.95698	      6.45979e-18	
      8190.85543	      6.61889e-18	
      8192.75388	      6.12339e-18	
      8194.65233	      5.63924e-18	
      8196.55078	      4.96186e-18	
      8198.44922	      5.54126e-18	
      8200.34767	      6.62680e-18	
      8202.24612	      7.42387e-18	
      8204.14457	      7.71436e-18	
      8206.04302	      7.63947e-18	
      8207.94147	      7.12371e-18	
      8209.83992	      7.45291e-18	
      8211.73837	      7.89312e-18	
      8213.63682	      7.41511e-18	
      8215.53527	      7.43928e-18	
      8217.43372	      7.50041e-18	
      8219.33217	      7.53941e-18	
      8221.23062	      7.75520e-18	
      8223.12906	      7.56603e-18	
      8225.02751	      7.91167e-18	
      8226.92596	      7.90500e-18	
      8228.82441	      7.71325e-18	
      8230.72286	      7.65343e-18	
      8232.62131	      7.47594e-18	
      8234.51976	      7.72118e-18	
      8236.41821	      8.03537e-18	
      8238.31666	      8.36699e-18	
      8240.21511	      1.16308e-17	
      8242.11356	      8.85526e-18	
      8244.01201	      7.98596e-18	
      8245.91046	      8.08430e-18	
      8247.80890	      8.33468e-18	
      8249.70735	      8.31337e-18	
      8251.60580	      8.38731e-18	
      8253.50425	      8.27277e-18	
      8255.40270	      8.44753e-18	
      8257.30115	      7.78438e-18	
      8259.19960	      7.95399e-18	
      8261.09805	      8.41202e-18	
      8262.99650	      8.48605e-18	
      8264.89495	      8.79211e-18	
      8266.79340	      8.67542e-18	
      8268.69185	      8.48639e-18	
      8270.59030	      8.50932e-18	
      8272.48874	      8.35702e-18	
      8274.38719	      8.69299e-18	
      8276.28564	      7.99109e-18	
      8278.18409	      7.91406e-18	
      8280.08254	      8.06325e-18	
      8281.98099	      9.26240e-18	
      8283.87944	      9.23267e-18	
      8285.77789	      9.02804e-18	
      8287.67634	      9.30427e-18	
      8289.57479	      8.80910e-18	
      8291.47324	      8.58032e-18	
      8293.37169	      8.59751e-18	
      8295.27014	      8.58048e-18	
      8297.16858	      8.27452e-18	
      8299.06703	      8.40417e-18	
      8300.96548	      8.62949e-18	
      8302.86393	      7.93082e-18	
      8304.76238	      8.63595e-18	
      8306.66083	      8.52490e-18	
      8308.55928	      8.47581e-18	
      8310.45773	      9.00545e-18	
      8312.35618	      8.93228e-18	
      8314.25463	      9.01919e-18	
      8316.15308	      9.64503e-18	
      8318.05153	      9.71256e-18	
      8319.94997	      9.20160e-18	
      8321.84842	      9.29754e-18	
      8323.74687	      8.93081e-18	
      8325.64532	      8.75459e-18	
      8327.54377	      8.49891e-18	
      8329.44222	      8.86800e-18	
      8331.34067	      9.03339e-18	
      8333.23912	      9.33447e-18	
      8335.13757	      9.45135e-18	
      8337.03602	      9.98726e-18	
      8338.93447	      9.60976e-18	
      8340.83292	      8.86620e-18	
      8342.73137	      8.32627e-18	
      8344.62981	      7.66593e-18	
      8346.52826	      8.44568e-18	
      8348.42671	      1.07145e-17	
      8350.32516	      9.55739e-18	
      8352.22361	      8.98629e-18	
      8354.12206	      9.00994e-18	
      8356.02051	      9.46592e-18	
      8357.91896	      9.79834e-18	
      8359.81741	      9.58462e-18	
      8361.71586	      9.25734e-18	
      8363.61431	      9.75819e-18	
      8365.51276	      1.00916e-17	
      8367.41121	      1.03928e-17	
      8369.30965	      1.04372e-17	
      8371.20810	      1.02167e-17	
      8373.10655	      1.05264e-17	
      8375.00500	      1.11614e-17	
      8376.90345	      9.86734e-18	
      8378.80190	      8.98255e-18	
      8380.70035	      1.02707e-17	
      8382.59880	      1.04899e-17	
      8384.49725	      1.03395e-17	
      8386.39570	      1.09208e-17	
      8388.29415	      1.06736e-17	
      8390.19260	      1.04832e-17	
      8392.09105	      1.06466e-17	
      8393.98949	      9.21853e-18	
      8395.88794	      1.00835e-17	
      8397.78639	      1.02992e-17	
      8399.68484	      1.03668e-17	
      8401.58329	      1.08978e-17	
      8403.48174	      1.06200e-17	
      8405.38019	      1.07954e-17	
      8407.27864	      1.06652e-17	
      8409.17709	      1.06864e-17	
      8411.07554	      1.08400e-17	
      8412.97399	      1.08534e-17	
      8414.87244	      1.07917e-17	
      8416.77089	      1.05635e-17	
      8418.66933	      9.81935e-18	
      8420.56778	      1.01360e-17	
      8422.46623	      1.06220e-17	
      8424.36468	      1.04356e-17	
      8426.26313	      8.75324e-18	
      8428.16158	      8.46428e-18	
      8430.06003	      9.86189e-18	
      8431.95848	      9.97481e-18	
      8433.85693	      9.68009e-18	
      8435.75538	      1.11807e-17	
      8437.65383	      1.17342e-17	
      8439.55228	      1.13695e-17	
      8441.45073	      1.13817e-17	
      8443.34917	      1.10703e-17	
      8445.24762	      1.10190e-17	
      8447.14607	      1.13537e-17	
      8449.04452	      1.07231e-17	
      8450.94297	      1.08445e-17	
      8452.84142	      1.06366e-17	
      8454.73987	      1.10036e-17	
      8456.63832	      1.09936e-17	
      8458.53677	      1.15717e-17	
      8460.43522	      1.24681e-17	
      8462.33367	      1.34938e-17	
      8464.23212	      1.14160e-17	
      8466.13057	      1.04088e-17	
      8468.02901	      1.09583e-17	
      8469.92746	      1.09887e-17	
      8471.82591	      1.14802e-17	
      8473.72436	      1.09481e-17	
      8475.62281	      1.09648e-17	
      8477.52126	      1.15066e-17	
      8479.41971	      1.15119e-17	
      8481.31816	      1.10481e-17	
      8483.21661	      1.16410e-17	
      8485.11506	      1.15400e-17	
      8487.01351	      1.17122e-17	
      8488.91196	      1.22821e-17	
      8490.81041	      1.14649e-17	
      8492.70885	      1.16657e-17	
      8494.60730	      1.21375e-17	
      8496.50575	      1.21506e-17	
      8498.40420	      1.11317e-17	
      8500.30265	      1.14280e-17	
      8502.20110	      1.13157e-17	
      8504.09955	      1.08636e-17	
      8505.99800	      1.14197e-17	
      8507.89645	      1.18777e-17	
      8509.79490	      1.18172e-17	
      8511.69335	      1.18441e-17	
      8513.59180	      1.08875e-17	
      8515.49025	      1.03034e-17	
      8517.38869	      9.80522e-18	
      8519.28714	      7.52471e-18	
      8521.18559	      4.85107e-18	
      8523.08404	      4.56036e-18	
      8524.98249	      6.64249e-18	
      8526.88094	      9.69107e-18	
      8528.77939	      1.08877e-17	
      8530.67784	      1.12804e-17	
      8532.57629	      1.20468e-17	
      8534.47474	      1.28596e-17	
      8536.37319	      1.24611e-17	
      8538.27164	      1.18938e-17	
      8540.17009	      1.13667e-17	
      8542.06853	      9.51701e-18	
      8543.96698	      9.95989e-18	
      8545.86543	      1.21246e-17	
      8547.76388	      1.19385e-17	
      8549.66233	      1.22306e-17	
      8551.56078	      1.29833e-17	
      8553.45923	      1.28294e-17	
      8555.35768	      1.23498e-17	
      8557.25613	      1.29626e-17	
      8559.15458	      1.27475e-17	
      8561.05303	      1.26550e-17	
      8562.95148	      1.31199e-17	
      8564.84992	      1.29815e-17	
      8566.74837	      1.31196e-17	
      8568.64682	      1.32762e-17	
      8570.54527	      1.33539e-17	
      8572.44372	      1.34675e-17	
      8574.34217	      1.32590e-17	
      8576.24062	      1.29087e-17	
      8578.13907	      1.29628e-17	
      8580.03752	      1.30617e-17	
      8581.93597	      1.28419e-17	
      8583.83442	      1.30034e-17	
      8585.73287	      1.30914e-17	
      8587.63132	      1.30966e-17	
      8589.52976	      1.31578e-17	
      8591.42821	      1.33332e-17	
      8593.32666	      1.25580e-17	
      8595.22511	      1.26911e-17	
      8597.12356	      1.36564e-17	
      8599.02201	      1.33978e-17	
      8600.92046	      1.31814e-17	
      8602.81891	      1.33882e-17	
      8604.71736	      1.34174e-17	
      8606.61581	      1.33467e-17	
      8608.51426	      1.27556e-17	
      8610.41271	      1.14024e-17	
      8612.31116	      9.12701e-18	
      8614.20960	      7.35045e-18	
      8616.10805	      7.02488e-18	
      8618.00650	      6.85084e-18	
      8619.90495	      6.40381e-18	
      8621.80340	      6.56658e-18	
      8623.70185	      6.37654e-18	
      8625.60030	      6.18019e-18	
      8627.49875	      6.94182e-18	
      8629.39720	      7.72391e-18	
      8631.29565	      6.31771e-18	
      8633.19410	      5.36450e-18	
      8635.09255	      5.59851e-18	
      8636.99100	      7.12734e-18	
      8638.88944	      7.68309e-18	
      8640.78789	      8.05788e-18	
      8642.68634	      8.07592e-18	
      8644.58479	      8.10951e-18	
      8646.48324	      7.24712e-18	
      8648.38169	      7.25605e-18	
      8650.28014	      7.54995e-18	
      8652.17859	      9.74398e-18	
      8654.07704	      8.66717e-18	
      8655.97549	      8.59224e-18	
      8657.87394	      9.00791e-18	
      8659.77239	      9.17314e-18	
      8661.67084	      9.02032e-18	
      8663.56928	      9.25871e-18	
      8665.46773	      9.62695e-18	
      8667.36618	      9.82806e-18	
      8669.26463	      8.92543e-18	
      8671.16308	      9.23093e-18	
      8673.06153	      9.71895e-18	
      8674.95998	      9.48999e-18	
      8676.85843	      9.81519e-18	
      8678.75688	      1.00826e-17	
      8680.65533	      1.01768e-17	
      8682.55378	      8.79185e-18	
      8684.45223	      9.14881e-18	
      8686.35068	      9.63764e-18	
      8688.24912	      1.04630e-17	
      8690.14757	      1.10304e-17	
      8692.04602	      1.07977e-17	
      8693.94447	      8.89978e-18	
      8695.84292	      8.23193e-18	
      8697.74137	      7.56555e-18	
      8699.63982	      7.96270e-18	
      8701.53827	      8.65559e-18	
      8703.43672	      8.57464e-18	
      8705.33517	      8.49915e-18	
      8707.23362	      8.86723e-18	
      8709.13207	      7.84389e-18	
      8711.03052	      8.04293e-18	
      8712.92896	      7.53015e-18	
      8714.82741	      7.85746e-18	
      8716.72586	      8.66888e-18	
      8718.62431	      9.09378e-18	
      8720.52276	      8.50282e-18	
      8722.42121	      8.50914e-18	
      8724.31966	      7.40147e-18	
      8726.21811	      8.25376e-18	
      8728.11656	      9.32582e-18	
      8730.01501	      9.90498e-18	
      8731.91346	      9.21232e-18	
      8733.81191	      8.81932e-18	
      8735.71036	      8.46042e-18	
      8737.60880	      9.04031e-18	
      8739.50725	      9.42901e-18	
      8741.40570	      9.78871e-18	
      8743.30415	      9.62743e-18	
      8745.20260	      9.94784e-18	
      8747.10105	      1.03331e-17	
      8748.99950	      1.03617e-17	
      8750.89795	      1.02131e-17	
      8752.79640	      9.72604e-18	
      8754.69485	      1.02425e-17	
      8756.59330	      9.25821e-18	
      8758.49175	      8.11703e-18	
      8760.39020	      9.25063e-18	
      8762.28864	      1.03838e-17	
      8764.18709	      1.02033e-17	
      8766.08554	      8.86147e-18	
      8767.98399	      8.40640e-18	
      8769.88244	      8.92036e-18	
      8771.78089	      9.64602e-18	
      8773.67934	      1.21472e-17	
      8775.57779	      1.32453e-17	
      8777.47624	      1.27682e-17	
      8779.37469	      1.23445e-17	
      8781.27314	      1.08658e-17	
      8783.17159	      1.03972e-17	
      8785.07004	      1.05388e-17	
      8786.96848	      1.03227e-17	
      8788.86693	      1.00227e-17	
      8790.76538	      9.89497e-18	
      8792.66383	      9.95956e-18	
      8794.56228	      1.07757e-17	
      8796.46073	      1.14498e-17	
      8798.35918	      1.15703e-17	
      8800.25763	      1.06281e-17	
      8802.15608	      9.81192e-18	
      8804.05453	      9.42643e-18	
      8805.95298	      9.77789e-18	
      8807.85143	      9.63578e-18	
      8809.74987	      9.81349e-18	
      8811.64832	      1.10244e-17	
      8813.54677	      1.15186e-17	
      8815.44522	      1.22929e-17	
      8817.34367	      1.27137e-17	
      8819.24212	      1.24463e-17	
      8821.14057	      1.23861e-17	
      8823.03902	      8.92418e-18	
      8824.93747	      8.29202e-18	
      8826.83592	      1.02298e-17	
      8828.73437	      9.61924e-18	
      8830.63282	      9.36295e-18	
      8832.53127	      1.00851e-17	
      8834.42971	      1.15079e-17	
      8836.32816	      1.15221e-17	
      8838.22661	      1.12197e-17	
      8840.12506	      1.18968e-17	
      8842.02351	      1.25702e-17	
      8843.92196	      1.28677e-17	
      8845.82041	      1.19037e-17	
      8847.71886	      1.08098e-17	
      8849.61731	      9.67155e-18	
      8851.51576	      1.02342e-17	
      8853.41421	      1.19135e-17	
      8855.31266	      1.12875e-17	
      8857.21111	      1.07000e-17	
      8859.10955	      1.08931e-17	
      8861.00800	      1.14253e-17	
      8862.90645	      1.23673e-17	
      8864.80490	      1.30487e-17	
      8866.70335	      1.31576e-17	
      8868.60180	      1.26831e-17	
      8870.50025	      1.07259e-17	
      8872.39870	      9.93836e-18	
      8874.29715	      1.02307e-17	
      8876.19560	      1.10254e-17	
      8878.09405	      1.34234e-17	
      8879.99250	      1.37467e-17	
      8881.89095	      1.34521e-17	
      8883.78939	      1.20507e-17	
      8885.68784	      1.03440e-17	
      8887.58629	      1.08192e-17	
      8889.48474	      1.25259e-17	
      8891.38319	      1.43952e-17	
      8893.28164	      1.33116e-17	
      8895.18009	      1.26248e-17	
      8897.07854	      1.08190e-17	
      8898.97699	      1.10924e-17	
      8900.87544	      1.27325e-17	
      8902.77389	      1.29498e-17	
      8904.67234	      1.33024e-17	
      8906.57079	      1.32754e-17	
      8908.46923	      1.32459e-17	
      8910.36768	      1.20126e-17	
      8912.26613	      1.27167e-17	
      8914.16458	      1.55770e-17	
      8916.06303	      1.50804e-17	
      8917.96148	      1.15980e-17	
      8919.85993	      1.16546e-17	
      8921.75838	      1.24659e-17	
      8923.65683	      1.24414e-17	
      8925.55528	      1.15297e-17	
      8927.45373	      1.20681e-17	
      8929.35218	      1.32580e-17	
      8931.25063	      1.28855e-17	
      8933.14907	      1.44660e-17	
      8935.04752	      1.49985e-17	
      8936.94597	      1.40693e-17	
      8938.84442	      1.15014e-17	
      8940.74287	      9.53845e-18	
      8942.64132	      7.79213e-18	
      8944.53977	      6.62183e-18	
      8946.43822	      7.98365e-18	
      8948.33667	      1.13219e-17	
      8950.23512	      1.27782e-17	
      8952.13357	      1.22736e-17	
      8954.03202	      1.16180e-17	
      8955.93047	      1.25627e-17	
      8957.82891	      1.38563e-17	
      8959.72736	      1.55445e-17	
      8961.62581	      1.42221e-17	
      8963.52426	      1.32256e-17	
      8965.42271	      1.23065e-17	
      8967.32116	      1.19237e-17	
      8969.21961	      1.24922e-17	
      8971.11806	      1.33211e-17	
      8973.01651	      1.34526e-17	
      8974.91496	      1.46989e-17	
      8976.81341	      1.43644e-17	
      8978.71186	      1.48349e-17	
      8980.61031	      1.37414e-17	
      8982.50875	      1.29134e-17	
      8984.40720	      1.41123e-17	
      8986.30565	      1.44874e-17	
      8988.20410	      1.42741e-17	
      8990.10255	      1.40574e-17	
      8992.00100	      1.48879e-17	
      8993.89945	      1.38027e-17	
      8995.79790	      1.30845e-17	
      8997.69635	      1.25532e-17	
      8999.59480	      1.33918e-17	
      9001.49325	      1.30209e-17	
      9003.39170	      1.34391e-17	
      9005.29015	      1.53429e-17	
      9007.18859	      1.54337e-17	
      9009.08704	      1.57262e-17	
      9010.98549	      1.41543e-17	
      9012.88394	      1.42098e-17	
      9014.78239	      1.50486e-17	
      9016.68084	      1.52044e-17	
      9018.57929	      1.53906e-17	
      9020.47774	      1.46374e-17	
      9022.37619	      1.46571e-17	
      9024.27464	      1.41091e-17	
      9026.17309	      1.28410e-17	
      9028.07154	      1.25397e-17	
      9029.96998	      1.32252e-17	
      9031.86843	      1.37115e-17	
      9033.76688	      1.49136e-17	
      9035.66533	      1.58830e-17	
      9037.56378	      1.64797e-17	
      9039.46223	      1.65667e-17	
      9041.36068	      1.58563e-17	
      9043.25913	      1.52901e-17	
      9045.15758	      1.45239e-17	
      9047.05603	      1.46219e-17	
      9048.95448	      1.46648e-17	
      9050.85293	      1.53767e-17	
      9052.75138	      1.61317e-17	
      9054.64982	      1.55348e-17	
      9056.54827	      1.50349e-17	
      9058.44672	      1.51696e-17	
      9060.34517	      1.50524e-17	
      9062.24362	      1.48365e-17	
      9064.14207	      1.51857e-17	
      9066.04052	      1.49640e-17	
      9067.93897	      1.47922e-17	
      9069.83742	      1.48532e-17	
      9071.73587	      1.42599e-17	
      9073.63432	      1.49757e-17	
      9075.53277	      1.47595e-17	
      9077.43122	      1.51388e-17	
      9079.32966	      1.64401e-17	
      9081.22811	      1.62370e-17	
      9083.12656	      1.52972e-17	
      9085.02501	      1.61235e-17	
      9086.92346	      1.66478e-17	
      9088.82191	      1.59832e-17	
      9090.72036	      1.60065e-17	
      9092.61881	      1.63823e-17	
      9094.51726	      1.59392e-17	
      9096.41571	      1.65241e-17	
      9098.31416	      1.66130e-17	
      9100.21261	      1.56232e-17	
      9102.11106	      1.54578e-17	
      9104.00950	      1.58036e-17	
      9105.90795	      1.55112e-17	
      9107.80640	      1.49168e-17	
      9109.70485	      1.59833e-17	
      9111.60330	      1.75129e-17	
      9113.50175	      1.76554e-17	
      9115.40020	      1.65358e-17	
      9117.29865	      1.66746e-17	
      9119.19710	      1.67324e-17	
      9121.09555	      1.63057e-17	
      9122.99400	      1.70112e-17	
      9124.89245	      1.69115e-17	
      9126.79090	      1.63573e-17	
      9128.68934	      1.62073e-17	
      9130.58779	      1.61856e-17	
      9132.48624	      1.68998e-17	
      9134.38469	      1.73792e-17	
      9136.28314	      1.75712e-17	
      9138.18159	      1.68248e-17	
      9140.08004	      1.56050e-17	
      9141.97849	      1.53326e-17	
      9143.87694	      1.64498e-17	
      9145.77539	      1.74247e-17	
      9147.67384	      1.66458e-17	
      9149.57229	      1.63259e-17	
      9151.47074	      1.72983e-17	
      9153.36918	      1.70768e-17	
      9155.26763	      1.66964e-17	
      9157.16608	      1.75109e-17	
      9159.06453	      1.80871e-17	
      9160.96298	      1.88378e-17	
      9162.86143	      1.74648e-17	
      9164.75988	      1.72623e-17	
      9166.65833	      1.81498e-17	
      9168.55678	      1.86751e-17	
      9170.45523	      1.82819e-17	
      9172.35368	      1.72105e-17	
      9174.25213	      1.66014e-17	
      9176.15058	      1.61845e-17	
      9178.04902	      1.68406e-17	
      9179.94747	      1.76422e-17	
      9181.84592	      1.82941e-17	
      9183.74437	      1.78457e-17	
      9185.64282	      1.79121e-17	
      9187.54127	      1.77305e-17	
      9189.43972	      1.93092e-17	
      9191.33817	      1.94773e-17	
      9193.23662	      1.85326e-17	
      9195.13507	      1.87697e-17	
      9197.03352	      1.79271e-17	
      9198.93197	      1.90537e-17	
      9200.83042	      1.94400e-17	
      9202.72886	      1.90613e-17	
      9204.62731	      1.93357e-17	
      9206.52576	      1.96282e-17	
      9208.42421	      1.85403e-17	
      9210.32266	      1.69637e-17	
      9212.22111	      1.80204e-17	
      9214.11956	      1.69604e-17	
      9216.01801	      1.74873e-17	
      9217.91646	      1.81016e-17	
      9219.81491	      1.82990e-17	
      9221.71336	      1.88862e-17	
      9223.61181	      1.82684e-17	
      9225.51026	      1.79552e-17	
      9227.40870	      1.79958e-17	
      9229.30715	      1.79869e-17	
      9231.20560	      1.84371e-17	
      9233.10405	      1.83459e-17	
      9235.00250	      1.86383e-17	
      9236.90095	      1.94866e-17	
      9238.79940	      1.85675e-17	
      9240.69785	      1.88739e-17	
      9242.59630	      1.99110e-17	
      9244.49475	      1.98167e-17	
      9246.39320	      1.87735e-17	
      9248.29165	      1.81185e-17	
      9250.19010	      1.76117e-17	
      9252.08854	      1.79001e-17	
      9253.98699	      1.88821e-17	
      9255.88544	      1.99784e-17	
      9257.78389	      1.97492e-17	
      9259.68234	      1.97448e-17	
      9261.58079	      1.85841e-17	
      9263.47924	      1.79112e-17	
      9265.37769	      1.82482e-17	
      9267.27614	      1.88471e-17	
      9269.17459	      1.91029e-17	
      9271.07304	      1.81561e-17	
      9272.97149	      1.68903e-17	
      9274.86993	      1.66883e-17	
      9276.76838	      1.57060e-17	
      9278.66683	      1.41433e-17	
      9280.56528	      1.43819e-17	
      9282.46373	      1.40917e-17	
      9284.36218	      1.50798e-17	
      9286.26063	      1.58595e-17	
      9288.15908	      1.47902e-17	
      9290.05753	      1.61878e-17	
      9291.95598	      1.63895e-17	
      9293.85443	      1.54229e-17	
      9295.75288	      1.57711e-17	
      9297.65133	      1.69199e-17	
      9299.54977	      1.71713e-17	
      9301.44822	      1.56076e-17	
      9303.34667	      1.49383e-17	
      9305.24512	      1.50769e-17	
      9307.14357	      1.49286e-17	
      9309.04202	      1.52281e-17	
      9310.94047	      1.57902e-17	
      9312.83892	      1.66948e-17	
      9314.73737	      1.73412e-17	
      9316.63582	      1.57295e-17	
      9318.53427	      1.50162e-17	
      9320.43272	      1.65745e-17	
      9322.33117	      1.54180e-17	
      9324.22961	      1.54248e-17	
      9326.12806	      1.50597e-17	
      9328.02651	      1.46779e-17	
      9329.92496	      1.61494e-17	
      9331.82341	      1.56822e-17	
      9333.72186	      1.48185e-17	
      9335.62031	      1.43477e-17	
      9337.51876	      1.39147e-17	
      9339.41721	      1.36481e-17	
      9341.31566	      1.46081e-17	
      9343.21411	      1.40219e-17	
      9345.11256	      1.38304e-17	
      9347.01101	      1.60229e-17	
      9348.90945	      1.87232e-17	
      9350.80790	      1.82885e-17	
      9352.70635	      1.68386e-17	
      9354.60480	      1.57579e-17	
      9356.50325	      1.55511e-17	
      9358.40170	      1.52649e-17	
      9360.30015	      1.59062e-17	
      9362.19860	      1.88072e-17	
      9364.09705	      1.87433e-17	
      9365.99550	      1.74562e-17	
      9367.89395	      1.61090e-17	
      9369.79240	      1.67668e-17	
      9371.69085	      1.72095e-17	
      9373.58929	      1.73222e-17	
      9375.48774	      1.80014e-17	
      9377.38619	      1.73114e-17	
      9379.28464	      1.64518e-17	
      9381.18309	      1.52347e-17	
      9383.08154	      1.75497e-17	
      9384.97999	      1.84297e-17	
      9386.87844	      1.80606e-17	
      9388.77689	      1.73185e-17	
      9390.67534	      1.87399e-17	
      9392.57379	      1.94735e-17	
      9394.47224	      1.89522e-17	
      9396.37069	      1.77916e-17	
      9398.26913	      1.87735e-17	
      9400.16758	      1.81433e-17	
      9402.06603	      1.73356e-17	
      9403.96448	      1.93532e-17	
      9405.86293	      2.03664e-17	
      9407.76138	      2.02915e-17	
      9409.65983	      1.92767e-17	
      9411.55828	      1.94264e-17	
      9413.45673	      2.02870e-17	
      9415.35518	      1.91656e-17	
      9417.25363	      1.83608e-17	
      9419.15208	      1.96015e-17	
      9421.05053	      1.91168e-17	
      9422.94897	      1.83842e-17	
      9424.84742	      1.82889e-17	
      9426.74587	      1.60859e-17	
      9428.64432	      1.70405e-17	
      9430.54277	      1.88759e-17	
      9432.44122	      2.09014e-17	
      9434.33967	      2.15173e-17	
      9436.23812	      2.14264e-17	
      9438.13657	      1.89785e-17	
      9440.03502	      1.72041e-17	
      9441.93347	      1.65514e-17	
      9443.83192	      1.64525e-17	
      9445.73037	      1.91314e-17	
      9447.62881	      1.93527e-17	
      9449.52726	      2.03189e-17	
      9451.42571	      2.05798e-17	
      9453.32416	      2.07460e-17	
      9455.22261	      2.00960e-17	
      9457.12106	      1.81694e-17	
      9459.01951	      1.73313e-17	
      9460.91796	      1.86705e-17	
      9462.81641	      1.87972e-17	
      9464.71486	      1.92178e-17	
      9466.61331	      2.03269e-17	
      9468.51176	      1.97757e-17	
      9470.41021	      1.72758e-17	
      9472.30865	      1.40961e-17	
      9474.20710	      1.42581e-17	
      9476.10555	      1.60845e-17	
      9478.00400	      1.80864e-17	
      9479.90245	      1.79205e-17	
      9481.80090	      1.75513e-17	
      9483.69935	      1.90641e-17	
      9485.59780	      2.19406e-17	
      9487.49625	      2.19620e-17	
      9489.39470	      2.19623e-17	
      9491.29315	      2.12727e-17	
      9493.19160	      1.94177e-17	
      9495.09005	      1.76033e-17	
      9496.98849	      1.96455e-17	
      9498.88694	      2.02646e-17	
      9500.78539	      1.71750e-17	
      9502.68384	      1.85900e-17	
      9504.58229	      2.00075e-17	
      9506.48074	      1.95688e-17	
      9508.37919	      2.05996e-17	
      9510.27764	      2.15503e-17	
      9512.17609	      2.06885e-17	
      9514.07454	      1.94369e-17	
      9515.97299	      1.94307e-17	
      9517.87144	      1.91231e-17	
      9519.76988	      1.62911e-17	
      9521.66833	      1.72237e-17	
      9523.56678	      1.93359e-17	
      9525.46523	      1.99815e-17	
      9527.36368	      2.31560e-17	
      9529.26213	      2.34998e-17	
      9531.16058	      2.28803e-17	
      9533.05903	      2.35720e-17	
      9534.95748	      2.25013e-17	
      9536.85593	      2.07073e-17	
      9538.75438	      2.07762e-17	
      9540.65283	      2.14902e-17	
      9542.55128	      2.01141e-17	
      9544.44972	      1.97359e-17	
      9546.34817	      1.95820e-17	
      9548.24662	      2.02067e-17	
      9550.14507	      2.03999e-17	
      9552.04352	      2.00224e-17	
      9553.94197	      1.96458e-17	
      9555.84042	      2.04771e-17	
      9557.73887	      2.05507e-17	
      9559.63732	      1.97732e-17	
      9561.53577	      1.91186e-17	
      9563.43422	      2.01528e-17	
      9565.33267	      1.92782e-17	
      9567.23112	      1.71239e-17	
      9569.12956	      1.90957e-17	
      9571.02801	      2.40446e-17	
      9572.92646	      2.54833e-17	
      9574.82491	      2.40826e-17	
      9576.72336	      2.28493e-17	
      9578.62181	      2.19913e-17	
      9580.52026	      2.16411e-17	
      9582.41871	      2.17030e-17	
      9584.31716	      2.13429e-17	
      9586.21561	      2.11141e-17	
      9588.11406	      1.92316e-17	
      9590.01251	      1.79751e-17	
      9591.91096	      1.89328e-17	
      9593.80940	      1.87292e-17	
      9595.70785	      1.82337e-17	
      9597.60630	      1.91520e-17	
      9599.50475	      1.94282e-17	
      9601.40320	      2.07600e-17	
      9603.30165	      1.92625e-17	
      9605.20010	      1.91928e-17	
      9607.09855	      2.03064e-17	
      9608.99700	      2.04744e-17	
      9610.89545	      1.94512e-17	
      9612.79390	      2.06720e-17	
      9614.69235	      1.88819e-17	
      9616.59080	      2.06537e-17	
      9618.48924	      2.02606e-17	
      9620.38769	      2.11409e-17	
      9622.28614	      2.08749e-17	
      9624.18459	      1.91867e-17	
      9626.08304	      2.11200e-17	
      9627.98149	      2.18154e-17	
      9629.87994	      2.08053e-17	
      9631.77839	      2.06420e-17	
      9633.67684	      1.99404e-17	
      9635.57529	      1.96641e-17	
      9637.47374	      1.90939e-17	
      9639.37219	      1.93844e-17	
      9641.27064	      1.79882e-17	
      9643.16908	      1.96464e-17	
      9645.06753	      2.14889e-17	
      9646.96598	      2.07415e-17	
      9648.86443	      2.13339e-17	
      9650.76288	      2.26423e-17	
      9652.66133	      2.13714e-17	
      9654.55978	      2.17045e-17	
      9656.45823	      2.15773e-17	
      9658.35668	      2.19137e-17	
      9660.25513	      2.14541e-17	
      9662.15358	      2.21182e-17	
      9664.05203	      2.22819e-17	
      9665.95048	      2.18997e-17	
      9667.84892	      2.26210e-17	
      9669.74737	      2.32102e-17	
      9671.64582	      2.28327e-17	
      9673.54427	      2.41533e-17	
      9675.44272	      2.38499e-17	
      9677.34117	      2.29609e-17	
      9679.23962	      2.32513e-17	
      9681.13807	      2.25706e-17	
      9683.03652	      2.09537e-17	
      9684.93497	      2.15926e-17	
      9686.83342	      2.28717e-17	
      9688.73187	      2.27613e-17	
      9690.63032	      2.28080e-17	
      9692.52876	      2.34864e-17	
      9694.42721	      2.29634e-17	
      9696.32566	      2.24004e-17	
      9698.22411	      2.29596e-17	
      9700.12256	      2.28539e-17	
      9702.02101	      2.30103e-17	
      9703.91946	      2.41208e-17	
      9705.81791	      2.41686e-17	
      9707.71636	      2.26075e-17	
      9709.61481	      2.31642e-17	
      9711.51326	      2.35585e-17	
      9713.41171	      2.51666e-17	
      9715.31016	      2.68680e-17	
      9717.20860	      2.58661e-17	
      9719.10705	      2.48463e-17	
      9721.00550	      2.42766e-17	
      9722.90395	      2.51348e-17	
      9724.80240	      2.36746e-17	
      9726.70085	      2.34388e-17	
      9728.59930	      2.45784e-17	
      9730.49775	      2.57399e-17	
      9732.39620	      2.37823e-17	
      9734.29465	      2.41875e-17	
      9736.19310	      2.47387e-17	
      9738.09155	      2.32277e-17	
      9739.98999	      2.41313e-17	
      9741.88844	      2.25319e-17	
      9743.78689	      2.25441e-17	
      9745.68534	      2.50083e-17	
      9747.58379	      2.53964e-17	
      9749.48224	      2.46039e-17	
      9751.38069	      2.56187e-17	
      9753.27914	      2.40406e-17	
      9755.17759	      2.46344e-17	
      9757.07604	      2.40778e-17	
      9758.97449	      2.58901e-17	
      9760.87294	      2.66869e-17	
      9762.77139	      2.48335e-17	
      9764.66983	      2.42027e-17	
      9766.56828	      2.56545e-17	
      9768.46673	      2.59538e-17	
      9770.36518	      2.51409e-17	
      9772.26363	      2.54341e-17	
      9774.16208	      2.44227e-17	
      9776.06053	      2.65084e-17	
      9777.95898	      2.48740e-17	
      9779.85743	      2.35646e-17	
      9781.75588	      2.40717e-17	
      9783.65433	      2.32611e-17	
      9785.55278	      2.31073e-17	
      9787.45123	      1.88206e-17	
      9789.34967	      2.01679e-17	
      9791.24812	      1.97388e-17	
      9793.14657	      2.21732e-17	
      9795.04502	      2.12646e-17	
      9796.94347	      2.27239e-17	
      9798.84192	      2.34970e-17	
      9800.74037	      2.26514e-17	
      9802.63882	      2.32221e-17	
      9804.53727	      2.38043e-17	
      9806.43572	      2.31313e-17	
      9808.33417	      2.43521e-17	
      9810.23262	      2.46407e-17	
      9812.13107	      2.31043e-17	
      9814.02951	      2.29555e-17	
      9815.92796	      2.39893e-17	
      9817.82641	      2.40876e-17	
      9819.72486	      2.65953e-17	
      9821.62331	      2.61397e-17	
      9823.52176	      2.52437e-17	
      9825.42021	      2.43751e-17	
      9827.31866	      2.48271e-17	
      9829.21711	      2.53289e-17	
      9831.11556	      2.41327e-17	
      9833.01401	      2.51753e-17	
      9834.91246	      2.71480e-17	
      9836.81091	      2.65878e-17	
      9838.70935	      2.69244e-17	
      9840.60780	      2.55562e-17	
      9842.50625	      2.58531e-17	
      9844.40470	      2.46716e-17	
      9846.30315	      2.34318e-17	
      9848.20160	      2.18314e-17	
      9850.10005	      2.31918e-17	
      9851.99850	      2.50683e-17	
      9853.89695	      2.44560e-17	
      9855.79540	      2.50427e-17	
      9857.69385	      2.75959e-17	
      9859.59230	      2.71879e-17	
      9861.49075	      2.47998e-17	
      9863.38919	      2.49836e-17	
      9865.28764	      2.95495e-17	
      9867.18609	      2.99351e-17	
      9869.08454	      2.95310e-17	
      9870.98299	      2.96905e-17	
      9872.88144	      2.86026e-17	
      9874.77989	      2.62820e-17	
      9876.67834	      2.54085e-17	
      9878.57679	      2.82390e-17	
      9880.47524	      2.55997e-17	
      9882.37369	      2.79435e-17	
      9884.27214	      2.83357e-17	
      9886.17059	      2.89161e-17	
      9888.06903	      2.99713e-17	
      9889.96748	      2.94451e-17	
      9891.86593	      2.66636e-17	
      9893.76438	      2.50048e-17	
      9895.66283	      2.29006e-17	
      9897.56128	      2.08655e-17	
      9899.45973	      2.07184e-17	
      9901.35818	      1.95330e-17	
      9903.25663	      1.99321e-17	
      9905.15508	      1.73396e-17	
      9907.05353	      1.75760e-17	
      9908.95198	      1.70904e-17	
      9910.85043	      1.57058e-17	
      9912.74887	      1.39783e-17	
      9914.64732	      1.47517e-17	
      9916.54577	      1.47767e-17	
      9918.44422	      1.50985e-17	
      9920.34267	      1.66036e-17	
      9922.24112	      1.85439e-17	
      9924.13957	      1.86200e-17	
      9926.03802	      1.69623e-17	
      9927.93647	      1.78014e-17	
      9929.83492	      1.63002e-17	
      9931.73337	      1.89137e-17	
      9933.63182	      2.19989e-17	
      9935.53027	      2.08861e-17	
      9937.42871	      1.85308e-17	
      9939.32716	      1.87318e-17	
      9941.22561	      1.89493e-17	
      9943.12406	      1.83313e-17	
      9945.02251	      1.79769e-17	
      9946.92096	      1.76126e-17	
      9948.81941	      2.19155e-17	
      9950.71786	      2.13740e-17	
      9952.61631	      2.56638e-17	
      9954.51476	      2.81653e-17	
      9956.41321	      2.32761e-17	
      9958.31166	      3.01479e-17	
      9960.21011	      4.14824e-17	
      9962.10855	      2.74587e-17	
      9964.00700	      2.43247e-17	
      9965.90545	      2.54138e-17	
      9967.80390	      2.23959e-17	
      9969.70235	      2.11997e-17	
      9971.60080	      1.93964e-17	
      9973.49925	      2.12741e-17	
      9975.39770	      1.71496e-17	
      9977.29615	      1.74131e-17	
      9979.19460	      2.21209e-17	
      9981.09305	      1.97205e-17	
      9982.99150	      1.62203e-17	
      9984.88994	      1.74700e-17	
      9986.78839	      1.99536e-17	
      9988.68684	      1.89412e-17	
      9990.58529	      1.81011e-17	
      9992.48374	      1.89214e-17	
      9994.38219	      1.96902e-17	
      9996.28064	      2.08709e-17	
      9998.17909	      2.22474e-17	
     10000.07754	      2.24730e-17	
     10001.97599	      2.45556e-17	
     10003.87444	      2.24297e-17	
     10005.77289	      2.44005e-17	
     10007.67134	      2.99589e-17	
     10009.56978	      2.86572e-17	
     10011.46823	      2.74477e-17	
     10013.36668	      2.49827e-17	
     10015.26513	      2.45647e-17	
     10017.16358	      2.26672e-17	
     10019.06203	      2.58912e-17	
     10020.96048	      2.07911e-17	
     10022.85893	      2.14439e-17	
     10024.75738	      1.82900e-17	
     10026.65583	      2.26077e-17	
     10028.55428	      2.08207e-17	
     10030.45273	      2.03979e-17	
     10032.35118	      2.44986e-17	
     10034.24962	      2.46394e-17	
     10036.14807	      2.04679e-17	
     10038.04652	      2.09804e-17	
     10039.94497	      2.21853e-17	
     10041.84342	      2.10570e-17	
     10043.74187	      2.49305e-17	
     10045.64032	      2.77123e-17	
     10047.53877	      2.52411e-17	
     10049.43722	      2.85082e-17	
     10051.33567	      2.30138e-17	
     10053.23412	      2.24619e-17	
     10055.13257	      2.44053e-17	
     10057.03102	      2.55238e-17	
     10058.92946	      2.30506e-17	
     10060.82791	      2.02583e-17	
     10062.72636	      2.22457e-17	
     10064.62481	      1.98761e-17	
     10066.52326	      1.98791e-17	
     10068.42171	      2.26791e-17	
     10070.32016	      2.38072e-17	
     10072.21861	      2.70613e-17	
     10074.11706	      2.78080e-17	
     10076.01551	      2.18337e-17	
     10077.91396	      2.21338e-17	
     10079.81241	      2.82143e-17	
     10081.71086	      2.55813e-17	
     10083.60930	      2.36753e-17	
     10085.50775	      2.52186e-17	
     10087.40620	      2.35422e-17	
     10089.30465	      2.27772e-17	
     10091.20310	      2.54431e-17	
     10093.10155	      2.27324e-17	
     10095.00000	      2.48035e-17	
#time:0.025315
