# Keck LRIS spectra of late-M, L and T dwarfs
# spty = L0  (Spectral type)
#
#     WAVELENGTH	#           FLUX	
#     (ANGSTROM)	#  (ERG/CM2/S/A)	
################	################	
      6300.00000	     0.00000e+00	
      6301.90095	     0.00000e+00	
      6303.80190	     0.00000e+00	
      6305.70285	     0.00000e+00	
      6307.60380	     0.00000e+00	
      6309.50475	     0.00000e+00	
      6311.40570	     0.00000e+00	
      6313.30665	     1.06316e-18	
      6315.20760	     7.42250e-18	
      6317.10855	     8.39856e-18	
      6319.00950	     8.80335e-18	
      6320.91046	     8.56035e-18	
      6322.81141	     8.17955e-18	
      6324.71236	     8.32061e-18	
      6326.61331	     1.01531e-17	
      6328.51426	     9.55536e-18	
      6330.41521	     8.33185e-18	
      6332.31616	     6.71347e-18	
      6334.21711	     7.77963e-18	
      6336.11806	     8.87207e-18	
      6338.01901	     1.06703e-17	
      6339.91996	     8.24196e-18	
      6341.82091	     8.78701e-18	
      6343.72186	     8.22688e-18	
      6345.62281	     9.83492e-18	
      6347.52376	     9.53787e-18	
      6349.42471	     8.69555e-18	
      6351.32566	     9.57517e-18	
      6353.22661	     1.11474e-17	
      6355.12756	     9.52576e-18	
      6357.02851	     9.69587e-18	
      6358.92946	     9.76989e-18	
      6360.83042	     1.02981e-17	
      6362.73137	     9.73331e-18	
      6364.63232	     9.18017e-18	
      6366.53327	     8.88725e-18	
      6368.43422	     9.45254e-18	
      6370.33517	     1.13826e-17	
      6372.23612	     1.07032e-17	
      6374.13707	     9.59881e-18	
      6376.03802	     8.65794e-18	
      6377.93897	     7.74465e-18	
      6379.83992	     9.19918e-18	
      6381.74087	     8.87024e-18	
      6383.64182	     9.17224e-18	
      6385.54277	     9.40031e-18	
      6387.44372	     9.06958e-18	
      6389.34467	     9.24081e-18	
      6391.24562	     8.36667e-18	
      6393.14657	     9.00069e-18	
      6395.04752	     9.09884e-18	
      6396.94847	     8.75260e-18	
      6398.84942	     1.08452e-17	
      6400.75038	     9.16459e-18	
      6402.65133	     8.78090e-18	
      6404.55228	     1.10808e-17	
      6406.45323	     1.07205e-17	
      6408.35418	     8.65605e-18	
      6410.25513	     9.05195e-18	
      6412.15608	     9.57893e-18	
      6414.05703	     8.14807e-18	
      6415.95798	     9.19548e-18	
      6417.85893	     1.04321e-17	
      6419.75988	     1.06355e-17	
      6421.66083	     9.06743e-18	
      6423.56178	     1.02553e-17	
      6425.46273	     8.16374e-18	
      6427.36368	     1.02340e-17	
      6429.26463	     9.74743e-18	
      6431.16558	     9.35321e-18	
      6433.06653	     7.82886e-18	
      6434.96748	     7.70986e-18	
      6436.86843	     6.32938e-18	
      6438.76938	     8.51114e-18	
      6440.67034	     9.67292e-18	
      6442.57129	     1.04911e-17	
      6444.47224	     1.11161e-17	
      6446.37319	     9.05761e-18	
      6448.27414	     9.00309e-18	
      6450.17509	     1.02144e-17	
      6452.07604	     1.02283e-17	
      6453.97699	     8.95467e-18	
      6455.87794	     8.53307e-18	
      6457.77889	     8.98521e-18	
      6459.67984	     8.75729e-18	
      6461.58079	     1.06723e-17	
      6463.48174	     1.14096e-17	
      6465.38269	     1.00811e-17	
      6467.28364	     9.82936e-18	
      6469.18459	     8.98614e-18	
      6471.08554	     8.93704e-18	
      6472.98649	     9.63849e-18	
      6474.88744	     8.77746e-18	
      6476.78839	     1.03957e-17	
      6478.68934	     8.85201e-18	
      6480.59030	     9.36660e-18	
      6482.49125	     9.89059e-18	
      6484.39220	     1.04794e-17	
      6486.29315	     1.00039e-17	
      6488.19410	     1.17482e-17	
      6490.09505	     1.00534e-17	
      6491.99600	     9.81162e-18	
      6493.89695	     1.20537e-17	
      6495.79790	     1.20018e-17	
      6497.69885	     9.04039e-18	
      6499.59980	     9.47547e-18	
      6501.50075	     1.13971e-17	
      6503.40170	     1.10021e-17	
      6505.30265	     1.15854e-17	
      6507.20360	     1.25947e-17	
      6509.10455	     1.22807e-17	
      6511.00550	     1.17184e-17	
      6512.90645	     1.19962e-17	
      6514.80740	     1.33561e-17	
      6516.70835	     1.29463e-17	
      6518.60930	     1.32458e-17	
      6520.51026	     1.34829e-17	
      6522.41121	     1.44709e-17	
      6524.31216	     1.40799e-17	
      6526.21311	     1.46052e-17	
      6528.11406	     1.60770e-17	
      6530.01501	     1.53413e-17	
      6531.91596	     1.51845e-17	
      6533.81691	     1.39919e-17	
      6535.71786	     1.56867e-17	
      6537.61881	     1.55258e-17	
      6539.51976	     1.70222e-17	
      6541.42071	     1.78951e-17	
      6543.32166	     1.69627e-17	
      6545.22261	     1.53079e-17	
      6547.12356	     1.59695e-17	
      6549.02451	     1.61165e-17	
      6550.92546	     1.60519e-17	
      6552.82641	     1.74891e-17	
      6554.72736	     1.39267e-17	
      6556.62831	     1.66963e-17	
      6558.52926	     1.60952e-17	
      6560.43022	     1.92853e-17	
      6562.33117	     1.98353e-17	
      6564.23212	     1.93817e-17	
      6566.13307	     1.82258e-17	
      6568.03402	     1.82141e-17	
      6569.93497	     1.61567e-17	
      6571.83592	     1.56176e-17	
      6573.73687	     1.53668e-17	
      6575.63782	     1.54321e-17	
      6577.53877	     1.60444e-17	
      6579.43972	     1.65352e-17	
      6581.34067	     1.42166e-17	
      6583.24162	     1.38334e-17	
      6585.14257	     1.43527e-17	
      6587.04352	     1.52140e-17	
      6588.94447	     1.62418e-17	
      6590.84542	     1.67263e-17	
      6592.74637	     1.75179e-17	
      6594.64732	     1.65800e-17	
      6596.54827	     1.70032e-17	
      6598.44922	     1.76038e-17	
      6600.35018	     1.44739e-17	
      6602.25113	     1.51273e-17	
      6604.15208	     1.66351e-17	
      6606.05303	     1.64585e-17	
      6607.95398	     1.64683e-17	
      6609.85493	     1.60637e-17	
      6611.75588	     1.72595e-17	
      6613.65683	     1.69333e-17	
      6615.55778	     1.78385e-17	
      6617.45873	     1.76615e-17	
      6619.35968	     1.67075e-17	
      6621.26063	     1.72042e-17	
      6623.16158	     1.83063e-17	
      6625.06253	     1.72010e-17	
      6626.96348	     1.52300e-17	
      6628.86443	     1.47880e-17	
      6630.76538	     1.51590e-17	
      6632.66633	     1.74496e-17	
      6634.56728	     1.71761e-17	
      6636.46823	     1.64032e-17	
      6638.36918	     1.75152e-17	
      6640.27014	     1.80810e-17	
      6642.17109	     1.58672e-17	
      6644.07204	     1.78681e-17	
      6645.97299	     1.65264e-17	
      6647.87394	     1.65434e-17	
      6649.77489	     1.66899e-17	
      6651.67584	     1.80904e-17	
      6653.57679	     1.72767e-17	
      6655.47774	     1.78100e-17	
      6657.37869	     1.84986e-17	
      6659.27964	     1.82506e-17	
      6661.18059	     1.71909e-17	
      6663.08154	     1.89643e-17	
      6664.98249	     1.88933e-17	
      6666.88344	     1.77717e-17	
      6668.78439	     1.84108e-17	
      6670.68534	     1.74989e-17	
      6672.58629	     1.70463e-17	
      6674.48724	     1.90413e-17	
      6676.38819	     1.87497e-17	
      6678.28914	     1.73610e-17	
      6680.19010	     1.86943e-17	
      6682.09105	     1.91813e-17	
      6683.99200	     1.92894e-17	
      6685.89295	     1.77220e-17	
      6687.79390	     1.82692e-17	
      6689.69485	     1.76532e-17	
      6691.59580	     1.85518e-17	
      6693.49675	     1.86005e-17	
      6695.39770	     1.81779e-17	
      6697.29865	     1.91457e-17	
      6699.19960	     1.96967e-17	
      6701.10055	     1.80189e-17	
      6703.00150	     1.81150e-17	
      6704.90245	     1.85132e-17	
      6706.80340	     1.94780e-17	
      6708.70435	     2.11723e-17	
      6710.60530	     1.83681e-17	
      6712.50625	     1.72648e-17	
      6714.40720	     1.80450e-17	
      6716.30815	     1.86437e-17	
      6718.20910	     1.78862e-17	
      6720.11006	     1.81171e-17	
      6722.01101	     1.89601e-17	
      6723.91196	     1.97615e-17	
      6725.81291	     1.89214e-17	
      6727.71386	     1.62980e-17	
      6729.61481	     1.83621e-17	
      6731.51576	     2.04207e-17	
      6733.41671	     1.90267e-17	
      6735.31766	     1.89323e-17	
      6737.21861	     1.92092e-17	
      6739.11956	     1.99819e-17	
      6741.02051	     2.15248e-17	
      6742.92146	     2.01465e-17	
      6744.82241	     1.90999e-17	
      6746.72336	     2.04394e-17	
      6748.62431	     2.08104e-17	
      6750.52526	     1.88129e-17	
      6752.42621	     1.96712e-17	
      6754.32716	     1.77087e-17	
      6756.22811	     1.96352e-17	
      6758.12906	     1.93809e-17	
      6760.03002	     1.99041e-17	
      6761.93097	     1.99949e-17	
      6763.83192	     2.13056e-17	
      6765.73287	     2.14759e-17	
      6767.63382	     2.07687e-17	
      6769.53477	     2.19233e-17	
      6771.43572	     2.18487e-17	
      6773.33667	     2.11264e-17	
      6775.23762	     2.17632e-17	
      6777.13857	     2.21879e-17	
      6779.03952	     2.36163e-17	
      6780.94047	     2.25585e-17	
      6782.84142	     2.11292e-17	
      6784.74237	     2.13828e-17	
      6786.64332	     2.06938e-17	
      6788.54427	     1.85353e-17	
      6790.44522	     1.92783e-17	
      6792.34617	     1.99883e-17	
      6794.24712	     2.24872e-17	
      6796.14807	     2.00192e-17	
      6798.04902	     2.01689e-17	
      6799.94997	     2.15123e-17	
      6801.85093	     2.06809e-17	
      6803.75188	     1.98310e-17	
      6805.65283	     2.13154e-17	
      6807.55378	     2.03061e-17	
      6809.45473	     1.95090e-17	
      6811.35568	     1.82484e-17	
      6813.25663	     1.90323e-17	
      6815.15758	     2.00396e-17	
      6817.05853	     1.99692e-17	
      6818.95948	     1.98945e-17	
      6820.86043	     2.16517e-17	
      6822.76138	     2.03786e-17	
      6824.66233	     1.98961e-17	
      6826.56328	     1.92043e-17	
      6828.46423	     1.96734e-17	
      6830.36518	     2.11251e-17	
      6832.26613	     2.03646e-17	
      6834.16708	     2.19096e-17	
      6836.06803	     2.15465e-17	
      6837.96898	     2.00521e-17	
      6839.86993	     1.87511e-17	
      6841.77089	     2.04500e-17	
      6843.67184	     1.96579e-17	
      6845.57279	     1.97183e-17	
      6847.47374	     2.00447e-17	
      6849.37469	     2.03817e-17	
      6851.27564	     1.99494e-17	
      6853.17659	     1.84845e-17	
      6855.07754	     1.84795e-17	
      6856.97849	     1.89825e-17	
      6858.87944	     1.98075e-17	
      6860.78039	     1.97058e-17	
      6862.68134	     1.96209e-17	
      6864.58229	     1.84344e-17	
      6866.48324	     1.83852e-17	
      6868.38419	     1.65411e-17	
      6870.28514	     1.37903e-17	
      6872.18609	     1.48860e-17	
      6874.08704	     1.45745e-17	
      6875.98799	     1.67540e-17	
      6877.88894	     1.80490e-17	
      6879.78989	     1.97209e-17	
      6881.69085	     2.02672e-17	
      6883.59180	     1.70863e-17	
      6885.49275	     1.84412e-17	
      6887.39370	     1.90397e-17	
      6889.29465	     1.82074e-17	
      6891.19560	     1.80500e-17	
      6893.09655	     1.75774e-17	
      6894.99750	     1.69685e-17	
      6896.89845	     1.61218e-17	
      6898.79940	     1.80937e-17	
      6900.70035	     1.83494e-17	
      6902.60130	     1.65431e-17	
      6904.50225	     1.63247e-17	
      6906.40320	     1.80346e-17	
      6908.30415	     1.94952e-17	
      6910.20510	     1.93730e-17	
      6912.10605	     1.92436e-17	
      6914.00700	     1.87739e-17	
      6915.90795	     1.89590e-17	
      6917.80890	     1.93170e-17	
      6919.70985	     1.84599e-17	
      6921.61081	     1.80373e-17	
      6923.51176	     1.93771e-17	
      6925.41271	     2.24589e-17	
      6927.31366	     2.12330e-17	
      6929.21461	     2.22059e-17	
      6931.11556	     2.16175e-17	
      6933.01651	     2.23100e-17	
      6934.91746	     2.21651e-17	
      6936.81841	     2.18150e-17	
      6938.71936	     2.17198e-17	
      6940.62031	     2.21776e-17	
      6942.52126	     2.29188e-17	
      6944.42221	     2.33211e-17	
      6946.32316	     2.65657e-17	
      6948.22411	     2.57679e-17	
      6950.12506	     2.55336e-17	
      6952.02601	     2.54860e-17	
      6953.92696	     2.50520e-17	
      6955.82791	     2.26792e-17	
      6957.72886	     2.27563e-17	
      6959.62981	     2.26411e-17	
      6961.53077	     2.43632e-17	
      6963.43172	     2.42488e-17	
      6965.33267	     2.42218e-17	
      6967.23362	     2.37605e-17	
      6969.13457	     2.45865e-17	
      6971.03552	     2.62199e-17	
      6972.93647	     2.38372e-17	
      6974.83742	     2.43858e-17	
      6976.73837	     2.55496e-17	
      6978.63932	     2.51467e-17	
      6980.54027	     2.49747e-17	
      6982.44122	     2.56113e-17	
      6984.34217	     2.61148e-17	
      6986.24312	     2.63577e-17	
      6988.14407	     2.58317e-17	
      6990.04502	     2.52119e-17	
      6991.94597	     2.35611e-17	
      6993.84692	     2.52661e-17	
      6995.74787	     2.59198e-17	
      6997.64882	     2.48759e-17	
      6999.54977	     2.54234e-17	
      7001.45073	     2.62219e-17	
      7003.35168	     2.46216e-17	
      7005.25263	     2.51265e-17	
      7007.15358	     2.64608e-17	
      7009.05453	     2.77987e-17	
      7010.95548	     2.86385e-17	
      7012.85643	     2.74528e-17	
      7014.75738	     2.73381e-17	
      7016.65833	     2.87231e-17	
      7018.55928	     2.74994e-17	
      7020.46023	     2.96880e-17	
      7022.36118	     3.00114e-17	
      7024.26213	     3.00389e-17	
      7026.16308	     3.01643e-17	
      7028.06403	     3.03168e-17	
      7029.96498	     2.95401e-17	
      7031.86593	     3.09970e-17	
      7033.76688	     3.21526e-17	
      7035.66783	     3.06068e-17	
      7037.56878	     3.17225e-17	
      7039.46973	     3.15554e-17	
      7041.37069	     3.31351e-17	
      7043.27164	     3.40516e-17	
      7045.17259	     3.36076e-17	
      7047.07354	     3.31315e-17	
      7048.97449	     3.17569e-17	
      7050.87544	     3.51628e-17	
      7052.77639	     3.32381e-17	
      7054.67734	     2.89597e-17	
      7056.57829	     2.70608e-17	
      7058.47924	     2.56112e-17	
      7060.38019	     2.54792e-17	
      7062.28114	     2.46684e-17	
      7064.18209	     2.44499e-17	
      7066.08304	     2.69892e-17	
      7067.98399	     2.58735e-17	
      7069.88494	     2.66009e-17	
      7071.78589	     2.79771e-17	
      7073.68684	     2.87499e-17	
      7075.58779	     2.76470e-17	
      7077.48874	     2.68935e-17	
      7079.38969	     2.90987e-17	
      7081.29065	     2.78848e-17	
      7083.19160	     2.73512e-17	
      7085.09255	     2.77534e-17	
      7086.99350	     2.92331e-17	
      7088.89445	     2.61718e-17	
      7090.79540	     2.48477e-17	
      7092.69635	     2.55917e-17	
      7094.59730	     2.70050e-17	
      7096.49825	     2.54137e-17	
      7098.39920	     2.50687e-17	
      7100.30015	     2.46093e-17	
      7102.20110	     2.61294e-17	
      7104.10205	     2.65794e-17	
      7106.00300	     2.67138e-17	
      7107.90395	     2.76553e-17	
      7109.80490	     2.66559e-17	
      7111.70585	     2.71418e-17	
      7113.60680	     2.70372e-17	
      7115.50775	     2.64664e-17	
      7117.40870	     2.73071e-17	
      7119.30965	     2.76506e-17	
      7121.21061	     2.78723e-17	
      7123.11156	     2.70863e-17	
      7125.01251	     2.61655e-17	
      7126.91346	     2.58115e-17	
      7128.81441	     2.53310e-17	
      7130.71536	     2.45343e-17	
      7132.61631	     2.59077e-17	
      7134.51726	     2.56884e-17	
      7136.41821	     2.64554e-17	
      7138.31916	     2.58474e-17	
      7140.22011	     2.81536e-17	
      7142.12106	     2.78937e-17	
      7144.02201	     2.72127e-17	
      7145.92296	     2.52068e-17	
      7147.82391	     2.61106e-17	
      7149.72486	     2.73225e-17	
      7151.62581	     2.96504e-17	
      7153.52676	     2.79697e-17	
      7155.42771	     3.01604e-17	
      7157.32866	     2.81863e-17	
      7159.22961	     2.89172e-17	
      7161.13057	     2.80468e-17	
      7163.03152	     2.72664e-17	
      7164.93247	     2.92388e-17	
      7166.83342	     2.93491e-17	
      7168.73437	     2.81529e-17	
      7170.63532	     2.98681e-17	
      7172.53627	     2.99167e-17	
      7174.43722	     2.81629e-17	
      7176.33817	     2.83341e-17	
      7178.23912	     3.01136e-17	
      7180.14007	     2.99712e-17	
      7182.04102	     3.01407e-17	
      7183.94197	     3.15249e-17	
      7185.84292	     3.05998e-17	
      7187.74387	     2.98190e-17	
      7189.64482	     3.04337e-17	
      7191.54577	     3.09133e-17	
      7193.44672	     3.04506e-17	
      7195.34767	     3.06667e-17	
      7197.24862	     3.13520e-17	
      7199.14957	     3.06000e-17	
      7201.05053	     3.14890e-17	
      7202.95148	     3.25895e-17	
      7204.85243	     3.15507e-17	
      7206.75338	     3.14365e-17	
      7208.65433	     3.21140e-17	
      7210.55528	     3.22439e-17	
      7212.45623	     3.40950e-17	
      7214.35718	     3.33031e-17	
      7216.25813	     3.39616e-17	
      7218.15908	     3.39289e-17	
      7220.06003	     3.37520e-17	
      7221.96098	     3.30889e-17	
      7223.86193	     3.44720e-17	
      7225.76288	     3.65095e-17	
      7227.66383	     3.68940e-17	
      7229.56478	     3.53015e-17	
      7231.46573	     3.45912e-17	
      7233.36668	     3.49459e-17	
      7235.26763	     3.49490e-17	
      7237.16858	     3.59090e-17	
      7239.06953	     3.67744e-17	
      7240.97049	     3.56412e-17	
      7242.87144	     3.50909e-17	
      7244.77239	     3.58024e-17	
      7246.67334	     3.86635e-17	
      7248.57429	     3.97556e-17	
      7250.47524	     3.85251e-17	
      7252.37619	     3.87718e-17	
      7254.27714	     4.12379e-17	
      7256.17809	     3.99686e-17	
      7258.07904	     4.00796e-17	
      7259.97999	     4.12874e-17	
      7261.88094	     4.13954e-17	
      7263.78189	     4.28060e-17	
      7265.68284	     4.40359e-17	
      7267.58379	     4.23646e-17	
      7269.48474	     3.99043e-17	
      7271.38569	     4.09261e-17	
      7273.28664	     4.05649e-17	
      7275.18759	     4.09481e-17	
      7277.08854	     4.28564e-17	
      7278.98949	     4.28211e-17	
      7280.89045	     4.47769e-17	
      7282.79140	     4.28798e-17	
      7284.69235	     4.55302e-17	
      7286.59330	     4.77639e-17	
      7288.49425	     4.43521e-17	
      7290.39520	     4.48577e-17	
      7292.29615	     4.44288e-17	
      7294.19710	     4.71751e-17	
      7296.09805	     4.75192e-17	
      7297.99900	     4.78608e-17	
      7299.89995	     4.83446e-17	
      7301.80090	     4.92505e-17	
      7303.70185	     4.92783e-17	
      7305.60280	     4.87361e-17	
      7307.50375	     5.05503e-17	
      7309.40470	     5.03093e-17	
      7311.30565	     5.08216e-17	
      7313.20660	     5.38484e-17	
      7315.10755	     5.46580e-17	
      7317.00850	     5.43365e-17	
      7318.90945	     5.38130e-17	
      7320.81041	     5.49443e-17	
      7322.71136	     5.61662e-17	
      7324.61231	     5.46741e-17	
      7326.51326	     5.50009e-17	
      7328.41421	     5.38972e-17	
      7330.31516	     5.26553e-17	
      7332.21611	     5.29540e-17	
      7334.11706	     5.41588e-17	
      7336.01801	     5.48594e-17	
      7337.91896	     5.87310e-17	
      7339.81991	     5.81474e-17	
      7341.72086	     5.35208e-17	
      7343.62181	     5.47624e-17	
      7345.52276	     5.56706e-17	
      7347.42371	     5.30292e-17	
      7349.32466	     5.35076e-17	
      7351.22561	     5.27513e-17	
      7353.12656	     5.35515e-17	
      7355.02751	     5.13476e-17	
      7356.92846	     5.09741e-17	
      7358.82941	     5.12910e-17	
      7360.73037	     5.18498e-17	
      7362.63132	     5.48222e-17	
      7364.53227	     5.44612e-17	
      7366.43322	     5.87042e-17	
      7368.33417	     5.99917e-17	
      7370.23512	     5.71112e-17	
      7372.13607	     5.65224e-17	
      7374.03702	     5.27333e-17	
      7375.93797	     5.38145e-17	
      7377.83892	     5.40629e-17	
      7379.73987	     5.25415e-17	
      7381.64082	     5.15226e-17	
      7383.54177	     5.22509e-17	
      7385.44272	     5.29833e-17	
      7387.34367	     5.41232e-17	
      7389.24462	     5.54787e-17	
      7391.14557	     5.50811e-17	
      7393.04652	     5.46143e-17	
      7394.94747	     5.14929e-17	
      7396.84842	     4.82703e-17	
      7398.74937	     4.93595e-17	
      7400.65033	     4.96538e-17	
      7402.55128	     5.15017e-17	
      7404.45223	     5.31484e-17	
      7406.35318	     5.17020e-17	
      7408.25413	     4.99405e-17	
      7410.15508	     5.15870e-17	
      7412.05603	     5.21318e-17	
      7413.95698	     5.14536e-17	
      7415.85793	     4.99477e-17	
      7417.75888	     4.74097e-17	
      7419.65983	     4.64287e-17	
      7421.56078	     4.60131e-17	
      7423.46173	     4.74103e-17	
      7425.36268	     4.90686e-17	
      7427.26363	     5.06277e-17	
      7429.16458	     4.96360e-17	
      7431.06553	     5.02344e-17	
      7432.96648	     4.78844e-17	
      7434.86743	     4.93965e-17	
      7436.76838	     4.99595e-17	
      7438.66933	     4.95898e-17	
      7440.57029	     4.81700e-17	
      7442.47124	     4.74390e-17	
      7444.37219	     4.77593e-17	
      7446.27314	     4.64398e-17	
      7448.17409	     4.53822e-17	
      7450.07504	     4.73344e-17	
      7451.97599	     4.92138e-17	
      7453.87694	     4.72911e-17	
      7455.77789	     4.62511e-17	
      7457.67884	     4.59596e-17	
      7459.57979	     4.74081e-17	
      7461.48074	     4.76739e-17	
      7463.38169	     4.71089e-17	
      7465.28264	     4.71283e-17	
      7467.18359	     4.84680e-17	
      7469.08454	     4.85172e-17	
      7470.98549	     4.92943e-17	
      7472.88644	     5.11619e-17	
      7474.78739	     4.88838e-17	
      7476.68834	     4.83264e-17	
      7478.58929	     4.94394e-17	
      7480.49025	     4.84864e-17	
      7482.39120	     5.04347e-17	
      7484.29215	     5.09840e-17	
      7486.19310	     4.99826e-17	
      7488.09405	     5.19771e-17	
      7489.99500	     5.23362e-17	
      7491.89595	     5.18787e-17	
      7493.79690	     5.02845e-17	
      7495.69785	     5.05728e-17	
      7497.59880	     5.19201e-17	
      7499.49975	     5.04896e-17	
      7501.40070	     5.22317e-17	
      7503.30165	     5.30210e-17	
      7505.20260	     5.14128e-17	
      7507.10355	     5.18914e-17	
      7509.00450	     5.23262e-17	
      7510.90545	     5.06353e-17	
      7512.80640	     5.19954e-17	
      7514.70735	     5.33902e-17	
      7516.60830	     5.31888e-17	
      7518.50925	     5.19487e-17	
      7520.41021	     5.38699e-17	
      7522.31116	     5.36697e-17	
      7524.21211	     5.51635e-17	
      7526.11306	     5.54255e-17	
      7528.01401	     5.53779e-17	
      7529.91496	     5.65014e-17	
      7531.81591	     5.67482e-17	
      7533.71686	     5.66696e-17	
      7535.61781	     5.77948e-17	
      7537.51876	     6.03826e-17	
      7539.41971	     6.05257e-17	
      7541.32066	     6.11029e-17	
      7543.22161	     6.07658e-17	
      7545.12256	     5.95205e-17	
      7547.02351	     5.94059e-17	
      7548.92446	     6.01412e-17	
      7550.82541	     6.04374e-17	
      7552.72636	     6.01033e-17	
      7554.62731	     6.09917e-17	
      7556.52826	     6.29175e-17	
      7558.42921	     6.38419e-17	
      7560.33017	     6.40974e-17	
      7562.23112	     6.47903e-17	
      7564.13207	     6.24669e-17	
      7566.03302	     6.18235e-17	
      7567.93397	     6.11365e-17	
      7569.83492	     6.26683e-17	
      7571.73587	     6.49721e-17	
      7573.63682	     6.10242e-17	
      7575.53777	     6.26714e-17	
      7577.43872	     6.27306e-17	
      7579.33967	     6.52669e-17	
      7581.24062	     6.52295e-17	
      7583.14157	     6.38699e-17	
      7585.04252	     6.28762e-17	
      7586.94347	     5.66946e-17	
      7588.84442	     5.13865e-17	
      7590.74537	     4.91223e-17	
      7592.64632	     4.20844e-17	
      7594.54727	     3.72256e-17	
      7596.44822	     3.15089e-17	
      7598.34917	     2.51538e-17	
      7600.25013	     2.13792e-17	
      7602.15108	     1.86617e-17	
      7604.05203	     1.75805e-17	
      7605.95298	     1.75788e-17	
      7607.85393	     1.91579e-17	
      7609.75488	     2.07035e-17	
      7611.65583	     2.51342e-17	
      7613.55678	     3.03779e-17	
      7615.45773	     3.83961e-17	
      7617.35868	     4.48277e-17	
      7619.25963	     4.51436e-17	
      7621.16058	     4.24307e-17	
      7623.06153	     3.97302e-17	
      7624.96248	     3.25049e-17	
      7626.86343	     2.93593e-17	
      7628.76438	     2.70355e-17	
      7630.66533	     2.53873e-17	
      7632.56628	     2.40417e-17	
      7634.46723	     2.48612e-17	
      7636.36818	     2.64902e-17	
      7638.26913	     2.67454e-17	
      7640.17009	     2.86610e-17	
      7642.07104	     2.89077e-17	
      7643.97199	     2.81489e-17	
      7645.87294	     2.65997e-17	
      7647.77389	     2.45337e-17	
      7649.67484	     2.44147e-17	
      7651.57579	     2.40745e-17	
      7653.47674	     2.16022e-17	
      7655.37769	     1.94759e-17	
      7657.27864	     1.70415e-17	
      7659.17959	     1.35256e-17	
      7661.08054	     1.14928e-17	
      7662.98149	     8.17708e-18	
      7664.88244	     6.93421e-18	
      7666.78339	     1.02847e-17	
      7668.68434	     1.11749e-17	
      7670.58529	     1.50343e-17	
      7672.48624	     1.90362e-17	
      7674.38719	     2.16898e-17	
      7676.28814	     2.56221e-17	
      7678.18909	     2.77906e-17	
      7680.09005	     2.81685e-17	
      7681.99100	     2.91028e-17	
      7683.89195	     3.17112e-17	
      7685.79290	     3.18074e-17	
      7687.69385	     2.91565e-17	
      7689.59480	     2.85777e-17	
      7691.49575	     2.56819e-17	
      7693.39670	     2.07165e-17	
      7695.29765	     1.57694e-17	
      7697.19860	     1.20797e-17	
      7699.09955	     1.28389e-17	
      7701.00050	     1.56827e-17	
      7702.90145	     1.88787e-17	
      7704.80240	     2.25750e-17	
      7706.70335	     2.73749e-17	
      7708.60430	     3.15844e-17	
      7710.50525	     3.57285e-17	
      7712.40620	     3.67176e-17	
      7714.30715	     3.87838e-17	
      7716.20810	     3.96917e-17	
      7718.10905	     3.85618e-17	
      7720.01001	     4.25337e-17	
      7721.91096	     4.60522e-17	
      7723.81191	     4.62167e-17	
      7725.71286	     4.61276e-17	
      7727.61381	     4.84965e-17	
      7729.51476	     4.78367e-17	
      7731.41571	     4.75836e-17	
      7733.31666	     5.20656e-17	
      7735.21761	     5.45816e-17	
      7737.11856	     5.47941e-17	
      7739.01951	     5.53972e-17	
      7740.92046	     5.44502e-17	
      7742.82141	     5.21635e-17	
      7744.72236	     4.97326e-17	
      7746.62331	     4.75563e-17	
      7748.52426	     4.88680e-17	
      7750.42521	     4.89891e-17	
      7752.32616	     5.28152e-17	
      7754.22711	     5.52371e-17	
      7756.12806	     5.67208e-17	
      7758.02901	     5.54338e-17	
      7759.92996	     5.38388e-17	
      7761.83092	     5.37696e-17	
      7763.73187	     5.22281e-17	
      7765.63282	     5.31282e-17	
      7767.53377	     5.55839e-17	
      7769.43472	     5.62052e-17	
      7771.33567	     5.70155e-17	
      7773.23662	     5.94411e-17	
      7775.13757	     5.54818e-17	
      7777.03852	     5.40214e-17	
      7778.93947	     5.45554e-17	
      7780.84042	     5.36140e-17	
      7782.74137	     5.34110e-17	
      7784.64232	     5.50283e-17	
      7786.54327	     5.42819e-17	
      7788.44422	     5.34348e-17	
      7790.34517	     5.72861e-17	
      7792.24612	     5.63038e-17	
      7794.14707	     5.70398e-17	
      7796.04802	     5.33031e-17	
      7797.94897	     4.72121e-17	
      7799.84992	     4.81098e-17	
      7801.75088	     5.14136e-17	
      7803.65183	     5.59909e-17	
      7805.55278	     5.99322e-17	
      7807.45373	     6.18800e-17	
      7809.35468	     6.38180e-17	
      7811.25563	     6.35646e-17	
      7813.15658	     6.41206e-17	
      7815.05753	     6.36351e-17	
      7816.95848	     6.27197e-17	
      7818.85943	     5.94880e-17	
      7820.76038	     5.87154e-17	
      7822.66133	     5.90786e-17	
      7824.56228	     5.77574e-17	
      7826.46323	     5.78673e-17	
      7828.36418	     5.96552e-17	
      7830.26513	     6.03680e-17	
      7832.16608	     6.11625e-17	
      7834.06703	     6.17527e-17	
      7835.96798	     6.04382e-17	
      7837.86893	     6.20460e-17	
      7839.76988	     6.35057e-17	
      7841.67084	     6.46352e-17	
      7843.57179	     6.66347e-17	
      7845.47274	     6.63181e-17	
      7847.37369	     6.71822e-17	
      7849.27464	     6.77623e-17	
      7851.17559	     6.75347e-17	
      7853.07654	     6.73895e-17	
      7854.97749	     6.78508e-17	
      7856.87844	     6.77490e-17	
      7858.77939	     6.88348e-17	
      7860.68034	     6.58122e-17	
      7862.58129	     6.53964e-17	
      7864.48224	     6.55772e-17	
      7866.38319	     5.98697e-17	
      7868.28414	     5.45434e-17	
      7870.18509	     5.71546e-17	
      7872.08604	     5.79000e-17	
      7873.98699	     5.57497e-17	
      7875.88794	     5.61966e-17	
      7877.78889	     6.02381e-17	
      7879.68984	     6.05915e-17	
      7881.59080	     6.58935e-17	
      7883.49175	     6.85661e-17	
      7885.39270	     6.86248e-17	
      7887.29365	     6.69646e-17	
      7889.19460	     6.69602e-17	
      7891.09555	     6.72239e-17	
      7892.99650	     6.64831e-17	
      7894.89745	     6.27755e-17	
      7896.79840	     6.08679e-17	
      7898.69935	     5.93150e-17	
      7900.60030	     5.98093e-17	
      7902.50125	     6.05754e-17	
      7904.40220	     6.06234e-17	
      7906.30315	     6.01630e-17	
      7908.20410	     5.81882e-17	
      7910.10505	     6.12104e-17	
      7912.00600	     6.21172e-17	
      7913.90695	     5.96723e-17	
      7915.80790	     6.00820e-17	
      7917.70885	     5.97092e-17	
      7919.60980	     6.04222e-17	
      7921.51076	     6.15528e-17	
      7923.41171	     6.20304e-17	
      7925.31266	     6.16477e-17	
      7927.21361	     6.08954e-17	
      7929.11456	     6.29436e-17	
      7931.01551	     6.66411e-17	
      7932.91646	     6.55338e-17	
      7934.81741	     6.66961e-17	
      7936.71836	     6.46225e-17	
      7938.61931	     5.89262e-17	
      7940.52026	     5.71877e-17	
      7942.42121	     5.65384e-17	
      7944.32216	     5.20456e-17	
      7946.22311	     4.91186e-17	
      7948.12406	     5.28188e-17	
      7950.02501	     5.57571e-17	
      7951.92596	     5.82782e-17	
      7953.82691	     6.14452e-17	
      7955.72786	     6.04819e-17	
      7957.62881	     5.92326e-17	
      7959.52976	     5.76809e-17	
      7961.43072	     5.67777e-17	
      7963.33167	     5.72109e-17	
      7965.23262	     5.66925e-17	
      7967.13357	     5.85011e-17	
      7969.03452	     6.31527e-17	
      7970.93547	     6.56477e-17	
      7972.83642	     6.10871e-17	
      7974.73737	     6.14099e-17	
      7976.63832	     6.18523e-17	
      7978.53927	     6.10638e-17	
      7980.44022	     6.08633e-17	
      7982.34117	     5.69312e-17	
      7984.24212	     5.64662e-17	
      7986.14307	     5.86026e-17	
      7988.04402	     5.87089e-17	
      7989.94497	     5.99529e-17	
      7991.84592	     5.71366e-17	
      7993.74687	     5.86025e-17	
      7995.64782	     6.00003e-17	
      7997.54877	     5.88436e-17	
      7999.44972	     6.13660e-17	
      8001.35068	     6.20891e-17	
      8003.25163	     6.54088e-17	
      8005.15258	     6.80705e-17	
      8007.05353	     6.92836e-17	
      8008.95448	     6.64012e-17	
      8010.85543	     6.63393e-17	
      8012.75638	     6.89655e-17	
      8014.65733	     6.97605e-17	
      8016.55828	     7.13614e-17	
      8018.45923	     7.33442e-17	
      8020.36018	     7.36943e-17	
      8022.26113	     7.64941e-17	
      8024.16208	     7.76790e-17	
      8026.06303	     7.87925e-17	
      8027.96398	     7.75929e-17	
      8029.86493	     7.64044e-17	
      8031.76588	     7.93174e-17	
      8033.66683	     7.99132e-17	
      8035.56778	     7.80919e-17	
      8037.46873	     7.83907e-17	
      8039.36968	     7.97732e-17	
      8041.27064	     8.13341e-17	
      8043.17159	     8.25937e-17	
      8045.07254	     8.43905e-17	
      8046.97349	     8.57145e-17	
      8048.87444	     8.71776e-17	
      8050.77539	     9.04799e-17	
      8052.67634	     9.34782e-17	
      8054.57729	     9.40391e-17	
      8056.47824	     9.33596e-17	
      8058.37919	     9.58205e-17	
      8060.28014	     9.31472e-17	
      8062.18109	     8.97313e-17	
      8064.08204	     9.06415e-17	
      8065.98299	     9.39019e-17	
      8067.88394	     9.47164e-17	
      8069.78489	     9.77405e-17	
      8071.68584	     1.01586e-16	
      8073.58679	     1.05372e-16	
      8075.48774	     1.08434e-16	
      8077.38869	     1.09773e-16	
      8079.28964	     1.07948e-16	
      8081.19060	     1.06803e-16	
      8083.09155	     1.06528e-16	
      8084.99250	     1.11724e-16	
      8086.89345	     1.16593e-16	
      8088.79440	     1.15588e-16	
      8090.69535	     1.14204e-16	
      8092.59630	     1.14187e-16	
      8094.49725	     1.16564e-16	
      8096.39820	     1.16160e-16	
      8098.29915	     1.14225e-16	
      8100.20010	     1.15047e-16	
      8102.10105	     1.16881e-16	
      8104.00200	     1.19635e-16	
      8105.90295	     1.23368e-16	
      8107.80390	     1.27112e-16	
      8109.70485	     1.27972e-16	
      8111.60580	     1.28917e-16	
      8113.50675	     1.28412e-16	
      8115.40770	     1.28593e-16	
      8117.30865	     1.26727e-16	
      8119.20960	     1.26713e-16	
      8121.11056	     1.29782e-16	
      8123.01151	     1.34438e-16	
      8124.91246	     1.35534e-16	
      8126.81341	     1.39416e-16	
      8128.71436	     1.39956e-16	
      8130.61531	     1.40834e-16	
      8132.51626	     1.40861e-16	
      8134.41721	     1.46385e-16	
      8136.31816	     1.46580e-16	
      8138.21911	     1.45759e-16	
      8140.12006	     1.42010e-16	
      8142.02101	     1.35194e-16	
      8143.92196	     1.34858e-16	
      8145.82291	     1.34455e-16	
      8147.72386	     1.34544e-16	
      8149.62481	     1.36518e-16	
      8151.52576	     1.37872e-16	
      8153.42671	     1.40305e-16	
      8155.32766	     1.40733e-16	
      8157.22861	     1.40715e-16	
      8159.12956	     1.39346e-16	
      8161.03052	     1.41011e-16	
      8162.93147	     1.43968e-16	
      8164.83242	     1.49443e-16	
      8166.73337	     1.56347e-16	
      8168.63432	     1.58156e-16	
      8170.53527	     1.60450e-16	
      8172.43622	     1.60599e-16	
      8174.33717	     1.57326e-16	
      8176.23812	     1.54570e-16	
      8178.13907	     1.42712e-16	
      8180.04002	     1.25180e-16	
      8181.94097	     1.20498e-16	
      8183.84192	     1.25560e-16	
      8185.74287	     1.36638e-16	
      8187.64382	     1.45243e-16	
      8189.54477	     1.40413e-16	
      8191.44572	     1.24943e-16	
      8193.34667	     1.16870e-16	
      8195.24762	     1.15870e-16	
      8197.14857	     1.21261e-16	
      8199.04952	     1.33901e-16	
      8200.95048	     1.38898e-16	
      8202.85143	     1.39680e-16	
      8204.75238	     1.39268e-16	
      8206.65333	     1.36520e-16	
      8208.55428	     1.37397e-16	
      8210.45523	     1.37076e-16	
      8212.35618	     1.39830e-16	
      8214.25713	     1.40104e-16	
      8216.15808	     1.41131e-16	
      8218.05903	     1.46914e-16	
      8219.95998	     1.50870e-16	
      8221.86093	     1.52271e-16	
      8223.76188	     1.52061e-16	
      8225.66283	     1.52159e-16	
      8227.56378	     1.54365e-16	
      8229.46473	     1.51670e-16	
      8231.36568	     1.49937e-16	
      8233.26663	     1.55033e-16	
      8235.16758	     1.59566e-16	
      8237.06853	     1.60485e-16	
      8238.96948	     1.60861e-16	
      8240.87044	     1.60748e-16	
      8242.77139	     1.62603e-16	
      8244.67234	     1.63038e-16	
      8246.57329	     1.60669e-16	
      8248.47424	     1.57247e-16	
      8250.37519	     1.55336e-16	
      8252.27614	     1.48571e-16	
      8254.17709	     1.51219e-16	
      8256.07804	     1.57965e-16	
      8257.97899	     1.61044e-16	
      8259.87994	     1.66772e-16	
      8261.78089	     1.68401e-16	
      8263.68184	     1.65794e-16	
      8265.58279	     1.63516e-16	
      8267.48374	     1.58095e-16	
      8269.38469	     1.54488e-16	
      8271.28564	     1.52282e-16	
      8273.18659	     1.51955e-16	
      8275.08754	     1.54103e-16	
      8276.98849	     1.55723e-16	
      8278.88944	     1.54931e-16	
      8280.79040	     1.48028e-16	
      8282.69135	     1.42205e-16	
      8284.59230	     1.39132e-16	
      8286.49325	     1.32552e-16	
      8288.39420	     1.30953e-16	
      8290.29515	     1.30872e-16	
      8292.19610	     1.29852e-16	
      8294.09705	     1.27961e-16	
      8295.99800	     1.28772e-16	
      8297.89895	     1.30668e-16	
      8299.79990	     1.32211e-16	
      8301.70085	     1.29904e-16	
      8303.60180	     1.32176e-16	
      8305.50275	     1.32868e-16	
      8307.40370	     1.36473e-16	
      8309.30465	     1.37392e-16	
      8311.20560	     1.37028e-16	
      8313.10655	     1.44280e-16	
      8315.00750	     1.50537e-16	
      8316.90845	     1.51521e-16	
      8318.80940	     1.52830e-16	
      8320.71036	     1.57730e-16	
      8322.61131	     1.52800e-16	
      8324.51226	     1.52348e-16	
      8326.41321	     1.53101e-16	
      8328.31416	     1.53649e-16	
      8330.21511	     1.51160e-16	
      8332.11606	     1.49758e-16	
      8334.01701	     1.48750e-16	
      8335.91796	     1.45234e-16	
      8337.81891	     1.44529e-16	
      8339.71986	     1.40159e-16	
      8341.62081	     1.32972e-16	
      8343.52176	     1.33078e-16	
      8345.42271	     1.38925e-16	
      8347.32366	     1.42480e-16	
      8349.22461	     1.47307e-16	
      8351.12556	     1.54241e-16	
      8353.02651	     1.53071e-16	
      8354.92746	     1.52865e-16	
      8356.82841	     1.52766e-16	
      8358.72936	     1.53124e-16	
      8360.63032	     1.53356e-16	
      8362.53127	     1.56587e-16	
      8364.43222	     1.58404e-16	
      8366.33317	     1.62388e-16	
      8368.23412	     1.63658e-16	
      8370.13507	     1.56935e-16	
      8372.03602	     1.51402e-16	
      8373.93697	     1.47739e-16	
      8375.83792	     1.46248e-16	
      8377.73887	     1.43574e-16	
      8379.63982	     1.43972e-16	
      8381.54077	     1.47614e-16	
      8383.44172	     1.46044e-16	
      8385.34267	     1.45798e-16	
      8387.24362	     1.48556e-16	
      8389.14457	     1.48258e-16	
      8391.04552	     1.50726e-16	
      8392.94647	     1.52834e-16	
      8394.84742	     1.51808e-16	
      8396.74837	     1.55831e-16	
      8398.64932	     1.58641e-16	
      8400.55028	     1.62412e-16	
      8402.45123	     1.62767e-16	
      8404.35218	     1.60721e-16	
      8406.25313	     1.60095e-16	
      8408.15408	     1.56812e-16	
      8410.05503	     1.56274e-16	
      8411.95598	     1.57093e-16	
      8413.85693	     1.55728e-16	
      8415.75788	     1.55486e-16	
      8417.65883	     1.54083e-16	
      8419.55978	     1.56133e-16	
      8421.46073	     1.51064e-16	
      8423.36168	     1.48945e-16	
      8425.26263	     1.44553e-16	
      8427.16358	     1.44222e-16	
      8429.06453	     1.42026e-16	
      8430.96548	     1.34816e-16	
      8432.86643	     1.29505e-16	
      8434.76738	     1.29333e-16	
      8436.66833	     1.31555e-16	
      8438.56928	     1.31909e-16	
      8440.47024	     1.22616e-16	
      8442.37119	     1.17085e-16	
      8444.27214	     1.12823e-16	
      8446.17309	     1.09682e-16	
      8448.07404	     1.09751e-16	
      8449.97499	     9.90780e-17	
      8451.87594	     1.00563e-16	
      8453.77689	     1.04772e-16	
      8455.67784	     1.09692e-16	
      8457.57879	     1.09361e-16	
      8459.47974	     1.09481e-16	
      8461.38069	     1.04217e-16	
      8463.28164	     9.82336e-17	
      8465.18259	     9.28571e-17	
      8467.08354	     9.30015e-17	
      8468.98449	     9.64405e-17	
      8470.88544	     9.82669e-17	
      8472.78639	     1.01195e-16	
      8474.68734	     1.02457e-16	
      8476.58829	     1.00989e-16	
      8478.48924	     1.02320e-16	
      8480.39020	     1.07208e-16	
      8482.29115	     1.10005e-16	
      8484.19210	     1.08799e-16	
      8486.09305	     1.10344e-16	
      8487.99400	     1.11258e-16	
      8489.89495	     1.14465e-16	
      8491.79590	     1.13033e-16	
      8493.69685	     1.12275e-16	
      8495.59780	     1.10397e-16	
      8497.49875	     1.09983e-16	
      8499.39970	     1.08340e-16	
      8501.30065	     1.05874e-16	
      8503.20160	     1.00410e-16	
      8505.10255	     9.99809e-17	
      8507.00350	     1.05377e-16	
      8508.90445	     1.06388e-16	
      8510.80540	     1.06243e-16	
      8512.70635	     1.06654e-16	
      8514.60730	     1.05124e-16	
      8516.50825	     1.04070e-16	
      8518.40920	     1.04235e-16	
      8520.31016	     1.04460e-16	
      8522.21111	     1.05718e-16	
      8524.11206	     1.06949e-16	
      8526.01301	     1.08306e-16	
      8527.91396	     1.11804e-16	
      8529.81491	     1.13065e-16	
      8531.71586	     1.19614e-16	
      8533.61681	     1.22689e-16	
      8535.51776	     1.17123e-16	
      8537.41871	     1.13823e-16	
      8539.31966	     1.17984e-16	
      8541.22061	     1.21438e-16	
      8543.12156	     1.23660e-16	
      8545.02251	     1.29843e-16	
      8546.92346	     1.35129e-16	
      8548.82441	     1.36980e-16	
      8550.72536	     1.35956e-16	
      8552.62631	     1.32903e-16	
      8554.52726	     1.34447e-16	
      8556.42821	     1.31902e-16	
      8558.32916	     1.26725e-16	
      8560.23012	     1.26552e-16	
      8562.13107	     1.25413e-16	
      8564.03202	     1.24270e-16	
      8565.93297	     1.24455e-16	
      8567.83392	     1.25789e-16	
      8569.73487	     1.23800e-16	
      8571.63582	     1.20799e-16	
      8573.53677	     1.21018e-16	
      8575.43772	     1.17710e-16	
      8577.33867	     1.21623e-16	
      8579.23962	     1.26570e-16	
      8581.14057	     1.28682e-16	
      8583.04152	     1.31897e-16	
      8584.94247	     1.35209e-16	
      8586.84342	     1.29382e-16	
      8588.74437	     1.31846e-16	
      8590.64532	     1.35530e-16	
      8592.54627	     1.35842e-16	
      8594.44722	     1.39314e-16	
      8596.34817	     1.40660e-16	
      8598.24912	     1.39846e-16	
      8600.15008	     1.39133e-16	
      8602.05103	     1.40380e-16	
      8603.95198	     1.35367e-16	
      8605.85293	     1.32552e-16	
      8607.75388	     1.25430e-16	
      8609.65483	     1.20285e-16	
      8611.55578	     1.18785e-16	
      8613.45673	     1.11818e-16	
      8615.35768	     1.06978e-16	
      8617.25863	     1.08500e-16	
      8619.15958	     1.12782e-16	
      8621.06053	     1.14219e-16	
      8622.96148	     1.15304e-16	
      8624.86243	     1.11769e-16	
      8626.76338	     1.09437e-16	
      8628.66433	     1.14759e-16	
      8630.56528	     1.18916e-16	
      8632.46623	     1.24931e-16	
      8634.36718	     1.18795e-16	
      8636.26813	     1.12708e-16	
      8638.16908	     1.16178e-16	
      8640.07004	     1.16457e-16	
      8641.97099	     1.16148e-16	
      8643.87194	     1.12695e-16	
      8645.77289	     1.12377e-16	
      8647.67384	     1.11945e-16	
      8649.57479	     1.15472e-16	
      8651.47574	     1.14999e-16	
      8653.37669	     1.17547e-16	
      8655.27764	     1.16287e-16	
      8657.17859	     1.16518e-16	
      8659.07954	     1.12379e-16	
      8660.98049	     1.11347e-16	
      8662.88144	     1.15579e-16	
      8664.78239	     1.12520e-16	
      8666.68334	     1.07023e-16	
      8668.58429	     1.08285e-16	
      8670.48524	     1.13422e-16	
      8672.38619	     1.21367e-16	
      8674.28714	     1.26119e-16	
      8676.18809	     1.26225e-16	
      8678.08904	     1.28659e-16	
      8679.98999	     1.20383e-16	
      8681.89095	     1.20801e-16	
      8683.79190	     1.16802e-16	
      8685.69285	     1.14719e-16	
      8687.59380	     1.11434e-16	
      8689.49475	     1.05034e-16	
      8691.39570	     9.76035e-17	
      8693.29665	     9.60315e-17	
      8695.19760	     9.85158e-17	
      8697.09855	     9.84171e-17	
      8698.99950	     1.02925e-16	
      8700.90045	     1.07395e-16	
      8702.80140	     1.07125e-16	
      8704.70235	     1.05596e-16	
      8706.60330	     1.03357e-16	
      8708.50425	     1.00516e-16	
      8710.40520	     9.77129e-17	
      8712.30615	     1.00255e-16	
      8714.20710	     1.04247e-16	
      8716.10805	     1.07326e-16	
      8718.00900	     1.08560e-16	
      8719.90995	     1.04616e-16	
      8721.81091	     1.05629e-16	
      8723.71186	     1.14075e-16	
      8725.61281	     1.20838e-16	
      8727.51376	     1.20818e-16	
      8729.41471	     1.20023e-16	
      8731.31566	     1.18194e-16	
      8733.21661	     1.15624e-16	
      8735.11756	     1.18687e-16	
      8737.01851	     1.20517e-16	
      8738.91946	     1.24225e-16	
      8740.82041	     1.32454e-16	
      8742.72136	     1.36993e-16	
      8744.62231	     1.32628e-16	
      8746.52326	     1.30223e-16	
      8748.42421	     1.33409e-16	
      8750.32516	     1.31730e-16	
      8752.22611	     1.32413e-16	
      8754.12706	     1.35389e-16	
      8756.02801	     1.42382e-16	
      8757.92896	     1.49639e-16	
      8759.82991	     1.45342e-16	
      8761.73087	     1.38489e-16	
      8763.63182	     1.28555e-16	
      8765.53277	     1.32584e-16	
      8767.43372	     1.47235e-16	
      8769.33467	     1.54320e-16	
      8771.23562	     1.57659e-16	
      8773.13657	     1.63417e-16	
      8775.03752	     1.61798e-16	
      8776.93847	     1.54536e-16	
      8778.83942	     1.49283e-16	
      8780.74037	     1.50345e-16	
      8782.64132	     1.49801e-16	
      8784.54227	     1.52116e-16	
      8786.44322	     1.50704e-16	
      8788.34417	     1.53247e-16	
      8790.24512	     1.57137e-16	
      8792.14607	     1.61833e-16	
      8794.04702	     1.63953e-16	
      8795.94797	     1.65279e-16	
      8797.84892	     1.52585e-16	
      8799.74987	     1.42243e-16	
      8801.65083	     1.36039e-16	
      8803.55178	     1.37693e-16	
      8805.45273	     1.37350e-16	
      8807.35368	     1.44005e-16	
      8809.25463	     1.55331e-16	
      8811.15558	     1.66382e-16	
      8813.05653	     1.75634e-16	
      8814.95748	     1.79206e-16	
      8816.85843	     1.81390e-16	
      8818.75938	     1.68729e-16	
      8820.66033	     1.61821e-16	
      8822.56128	     1.57094e-16	
      8824.46223	     1.54728e-16	
      8826.36318	     1.50667e-16	
      8828.26413	     1.63611e-16	
      8830.16508	     1.63457e-16	
      8832.06603	     1.71796e-16	
      8833.96698	     1.77126e-16	
      8835.86793	     1.78575e-16	
      8837.76888	     1.87275e-16	
      8839.66983	     1.85386e-16	
      8841.57079	     1.80711e-16	
      8843.47174	     1.70510e-16	
      8845.37269	     1.64036e-16	
      8847.27364	     1.65518e-16	
      8849.17459	     1.87056e-16	
      8851.07554	     1.99439e-16	
      8852.97649	     1.95051e-16	
      8854.87744	     1.84093e-16	
      8856.77839	     1.65809e-16	
      8858.67934	     1.47874e-16	
      8860.58029	     1.51350e-16	
      8862.48124	     1.52878e-16	
      8864.38219	     1.47824e-16	
      8866.28314	     1.42529e-16	
      8868.18409	     1.28302e-16	
      8870.08504	     1.20831e-16	
      8871.98599	     1.21570e-16	
      8873.88694	     1.32057e-16	
      8875.78789	     1.43163e-16	
      8877.68884	     1.45969e-16	
      8879.58979	     1.44528e-16	
      8881.49075	     1.43295e-16	
      8883.39170	     1.41729e-16	
      8885.29265	     1.46221e-16	
      8887.19360	     1.51651e-16	
      8889.09455	     1.60057e-16	
      8890.99550	     1.57634e-16	
      8892.89645	     1.46857e-16	
      8894.79740	     1.45914e-16	
      8896.69835	     1.53198e-16	
      8898.59930	     1.61132e-16	
      8900.50025	     1.72825e-16	
      8902.40120	     1.77385e-16	
      8904.30215	     1.72958e-16	
      8906.20310	     1.67337e-16	
      8908.10405	     1.65994e-16	
      8910.00500	     1.64600e-16	
      8911.90595	     1.65887e-16	
      8913.80690	     1.70145e-16	
      8915.70785	     1.72110e-16	
      8917.60880	     1.73722e-16	
      8919.50975	     1.64536e-16	
      8921.41071	     1.64143e-16	
      8923.31166	     1.62417e-16	
      8925.21261	     1.59943e-16	
      8927.11356	     1.67828e-16	
      8929.01451	     1.82839e-16	
      8930.91546	     1.95380e-16	
      8932.81641	     1.94288e-16	
      8934.71736	     1.78872e-16	
      8936.61831	     1.66786e-16	
      8938.51926	     1.56007e-16	
      8940.42021	     1.48168e-16	
      8942.32116	     1.53152e-16	
      8944.22211	     1.58651e-16	
      8946.12306	     1.65466e-16	
      8948.02401	     1.65969e-16	
      8949.92496	     1.65882e-16	
      8951.82591	     1.74929e-16	
      8953.72686	     1.78888e-16	
      8955.62781	     1.80959e-16	
      8957.52876	     1.87234e-16	
      8959.42971	     1.84801e-16	
      8961.33067	     1.73356e-16	
      8963.23162	     1.67800e-16	
      8965.13257	     1.63991e-16	
      8967.03352	     1.64030e-16	
      8968.93447	     1.72423e-16	
      8970.83542	     1.76347e-16	
      8972.73637	     1.86293e-16	
      8974.63732	     1.94444e-16	
      8976.53827	     1.84218e-16	
      8978.43922	     1.79129e-16	
      8980.34017	     1.88171e-16	
      8982.24112	     1.98746e-16	
      8984.14207	     2.02935e-16	
      8986.04302	     1.96752e-16	
      8987.94397	     1.89703e-16	
      8989.84492	     1.83294e-16	
      8991.74587	     1.82410e-16	
      8993.64682	     1.82561e-16	
      8995.54777	     1.80772e-16	
      8997.44872	     1.81338e-16	
      8999.34967	     1.87737e-16	
      9001.25063	     2.00969e-16	
      9003.15158	     2.08284e-16	
      9005.05253	     2.09108e-16	
      9006.95348	     2.09185e-16	
      9008.85443	     2.06539e-16	
      9010.75538	     2.03035e-16	
      9012.65633	     2.01412e-16	
      9014.55728	     1.98233e-16	
      9016.45823	     1.93276e-16	
      9018.35918	     1.84718e-16	
      9020.26013	     1.73282e-16	
      9022.16108	     1.68723e-16	
      9024.06203	     1.68881e-16	
      9025.96298	     1.72918e-16	
      9027.86393	     1.80904e-16	
      9029.76488	     1.88888e-16	
      9031.66583	     1.99214e-16	
      9033.56678	     2.12172e-16	
      9035.46773	     2.22618e-16	
      9037.36868	     2.19406e-16	
      9039.26963	     2.08935e-16	
      9041.17059	     2.04653e-16	
      9043.07154	     2.10296e-16	
      9044.97249	     2.15247e-16	
      9046.87344	     2.21483e-16	
      9048.77439	     2.10192e-16	
      9050.67534	     2.02883e-16	
      9052.57629	     2.02417e-16	
      9054.47724	     1.95649e-16	
      9056.37819	     1.95109e-16	
      9058.27914	     1.95019e-16	
      9060.18009	     1.92239e-16	
      9062.08104	     1.93271e-16	
      9063.98199	     1.88619e-16	
      9065.88294	     1.88455e-16	
      9067.78389	     1.86697e-16	
      9069.68484	     1.88115e-16	
      9071.58579	     1.90373e-16	
      9073.48674	     1.99175e-16	
      9075.38769	     2.11779e-16	
      9077.28864	     2.15527e-16	
      9079.18959	     2.14355e-16	
      9081.09055	     2.08846e-16	
      9082.99150	     2.06380e-16	
      9084.89245	     2.05329e-16	
      9086.79340	     2.05373e-16	
      9088.69435	     2.11485e-16	
      9090.59530	     2.16348e-16	
      9092.49625	     2.16054e-16	
      9094.39720	     2.26006e-16	
      9096.29815	     2.28094e-16	
      9098.19910	     2.24731e-16	
      9100.10005	     2.26702e-16	
      9102.00100	     2.26069e-16	
      9103.90195	     2.17861e-16	
      9105.80290	     2.20270e-16	
      9107.70385	     2.28523e-16	
      9109.60480	     2.37978e-16	
      9111.50575	     2.38905e-16	
      9113.40670	     2.34501e-16	
      9115.30765	     2.33970e-16	
      9117.20860	     2.33386e-16	
      9119.10955	     2.34701e-16	
      9121.01051	     2.35309e-16	
      9122.91146	     2.36706e-16	
      9124.81241	     2.39681e-16	
      9126.71336	     2.38154e-16	
      9128.61431	     2.35926e-16	
      9130.51526	     2.41583e-16	
      9132.41621	     2.44930e-16	
      9134.31716	     2.37482e-16	
      9136.21811	     2.25516e-16	
      9138.11906	     2.19597e-16	
      9140.02001	     2.25138e-16	
      9141.92096	     2.33449e-16	
      9143.82191	     2.43851e-16	
      9145.72286	     2.41535e-16	
      9147.62381	     2.38300e-16	
      9149.52476	     2.37936e-16	
      9151.42571	     2.44927e-16	
      9153.32666	     2.55027e-16	
      9155.22761	     2.53646e-16	
      9157.12856	     2.48721e-16	
      9159.02951	     2.43517e-16	
      9160.93047	     2.44349e-16	
      9162.83142	     2.48379e-16	
      9164.73237	     2.55370e-16	
      9166.63332	     2.58171e-16	
      9168.53427	     2.50276e-16	
      9170.43522	     2.45631e-16	
      9172.33617	     2.39596e-16	
      9174.23712	     2.40333e-16	
      9176.13807	     2.42336e-16	
      9178.03902	     2.45702e-16	
      9179.93997	     2.51565e-16	
      9181.84092	     2.50510e-16	
      9183.74187	     2.55498e-16	
      9185.64282	     2.68920e-16	
      9187.54377	     2.79747e-16	
      9189.44472	     2.77187e-16	
      9191.34567	     2.73936e-16	
      9193.24662	     2.75285e-16	
      9195.14757	     2.73942e-16	
      9197.04852	     2.74491e-16	
      9198.94947	     2.81529e-16	
      9200.85043	     2.87233e-16	
      9202.75138	     2.77276e-16	
      9204.65233	     2.60965e-16	
      9206.55328	     2.49779e-16	
      9208.45423	     2.48636e-16	
      9210.35518	     2.48824e-16	
      9212.25613	     2.49572e-16	
      9214.15708	     2.54215e-16	
      9216.05803	     2.54954e-16	
      9217.95898	     2.50664e-16	
      9219.85993	     2.55002e-16	
      9221.76088	     2.56589e-16	
      9223.66183	     2.52580e-16	
      9225.56278	     2.49637e-16	
      9227.46373	     2.43423e-16	
      9229.36468	     2.36861e-16	
      9231.26563	     2.31166e-16	
      9233.16658	     2.27326e-16	
      9235.06753	     2.23535e-16	
      9236.96848	     2.24855e-16	
      9238.86943	     2.37502e-16	
      9240.77039	     2.35772e-16	
      9242.67134	     2.33546e-16	
      9244.57229	     2.29895e-16	
      9246.47324	     2.21470e-16	
      9248.37419	     2.20741e-16	
      9250.27514	     2.27636e-16	
      9252.17609	     2.40005e-16	
      9254.07704	     2.55765e-16	
      9255.97799	     2.60186e-16	
      9257.87894	     2.48713e-16	
      9259.77989	     2.46065e-16	
      9261.68084	     2.52571e-16	
      9263.58179	     2.59495e-16	
      9265.48274	     2.66266e-16	
      9267.38369	     2.61318e-16	
      9269.28464	     2.47688e-16	
      9271.18559	     2.32891e-16	
      9273.08654	     2.22139e-16	
      9274.98749	     2.17303e-16	
      9276.88844	     2.16029e-16	
      9278.78939	     2.19362e-16	
      9280.69035	     2.24731e-16	
      9282.59130	     2.31826e-16	
      9284.49225	     2.31267e-16	
      9286.39320	     2.32573e-16	
      9288.29415	     2.34566e-16	
      9290.19510	     2.31220e-16	
      9292.09605	     2.29814e-16	
      9293.99700	     2.28424e-16	
      9295.89795	     2.20020e-16	
      9297.79890	     2.15126e-16	
      9299.69985	     2.09982e-16	
      9301.60080	     2.08348e-16	
      9303.50175	     2.12194e-16	
      9305.40270	     2.14549e-16	
      9307.30365	     2.16802e-16	
      9309.20460	     2.15239e-16	
      9311.10555	     2.27486e-16	
      9313.00650	     2.23671e-16	
      9314.90745	     2.06709e-16	
      9316.80840	     2.11518e-16	
      9318.70935	     2.12482e-16	
      9320.61031	     2.15758e-16	
      9322.51126	     1.97725e-16	
      9324.41221	     1.98080e-16	
      9326.31316	     2.13753e-16	
      9328.21411	     2.19187e-16	
      9330.11506	     2.15106e-16	
      9332.01601	     2.10613e-16	
      9333.91696	     2.16978e-16	
      9335.81791	     2.17835e-16	
      9337.71886	     2.21762e-16	
      9339.61981	     2.11221e-16	
      9341.52076	     1.91050e-16	
      9343.42171	     1.94606e-16	
      9345.32266	     2.04202e-16	
      9347.22361	     2.12810e-16	
      9349.12456	     2.13998e-16	
      9351.02551	     2.01297e-16	
      9352.92646	     1.91115e-16	
      9354.82741	     1.86828e-16	
      9356.72836	     1.92538e-16	
      9358.62931	     2.13424e-16	
      9360.53027	     2.24309e-16	
      9362.43122	     2.22253e-16	
      9364.33217	     2.15422e-16	
      9366.23312	     1.96985e-16	
      9368.13407	     1.82085e-16	
      9370.03502	     1.94934e-16	
      9371.93597	     2.09978e-16	
      9373.83692	     2.06808e-16	
      9375.73787	     2.03889e-16	
      9377.63882	     2.01048e-16	
      9379.53977	     2.11477e-16	
      9381.44072	     2.24423e-16	
      9383.34167	     2.28568e-16	
      9385.24262	     2.36905e-16	
      9387.14357	     2.51761e-16	
      9389.04452	     2.63852e-16	
      9390.94547	     2.63921e-16	
      9392.84642	     2.61845e-16	
      9394.74737	     2.56100e-16	
      9396.64832	     2.53471e-16	
      9398.54927	     2.50923e-16	
      9400.45023	     2.49411e-16	
      9402.35118	     2.51632e-16	
      9404.25213	     2.49924e-16	
      9406.15308	     2.47290e-16	
      9408.05403	     2.43171e-16	
      9409.95498	     2.36007e-16	
      9411.85593	     2.32369e-16	
      9413.75688	     2.32916e-16	
      9415.65783	     2.29067e-16	
      9417.55878	     2.28488e-16	
      9419.45973	     2.27688e-16	
      9421.36068	     2.24112e-16	
      9423.26163	     2.17379e-16	
      9425.16258	     2.07560e-16	
      9427.06353	     2.07870e-16	
      9428.96448	     2.23693e-16	
      9430.86543	     2.44577e-16	
      9432.76638	     2.54886e-16	
      9434.66733	     2.53959e-16	
      9436.56828	     2.44290e-16	
      9438.46923	     2.33412e-16	
      9440.37019	     2.38125e-16	
      9442.27114	     2.33320e-16	
      9444.17209	     2.27086e-16	
      9446.07304	     2.32528e-16	
      9447.97399	     2.43371e-16	
      9449.87494	     2.45422e-16	
      9451.77589	     2.41475e-16	
      9453.67684	     2.40541e-16	
      9455.57779	     2.35014e-16	
      9457.47874	     2.24900e-16	
      9459.37969	     2.37668e-16	
      9461.28064	     2.52363e-16	
      9463.18159	     2.69212e-16	
      9465.08254	     2.69123e-16	
      9466.98349	     2.51710e-16	
      9468.88444	     2.51802e-16	
      9470.78539	     2.53446e-16	
      9472.68634	     2.65101e-16	
      9474.58729	     2.80913e-16	
      9476.48824	     2.88142e-16	
      9478.38919	     2.76073e-16	
      9480.29015	     2.76774e-16	
      9482.19110	     2.86598e-16	
      9484.09205	     2.96425e-16	
      9485.99300	     3.09376e-16	
      9487.89395	     3.26197e-16	
      9489.79490	     3.15027e-16	
      9491.69585	     2.99041e-16	
      9493.59680	     2.90400e-16	
      9495.49775	     2.78296e-16	
      9497.39870	     2.75950e-16	
      9499.29965	     2.64639e-16	
      9501.20060	     2.74794e-16	
      9503.10155	     2.92721e-16	
      9505.00250	     3.04017e-16	
      9506.90345	     3.18541e-16	
      9508.80440	     3.15385e-16	
      9510.70535	     3.16007e-16	
      9512.60630	     3.00944e-16	
      9514.50725	     2.84879e-16	
      9516.40820	     2.73475e-16	
      9518.30915	     2.70743e-16	
      9520.21011	     2.84217e-16	
      9522.11106	     2.75255e-16	
      9524.01201	     2.87882e-16	
      9525.91296	     3.02559e-16	
      9527.81391	     2.98969e-16	
      9529.71486	     3.01812e-16	
      9531.61581	     2.95454e-16	
      9533.51676	     2.91424e-16	
      9535.41771	     2.90519e-16	
      9537.31866	     2.86258e-16	
      9539.21961	     2.78329e-16	
      9541.12056	     2.70967e-16	
      9543.02151	     2.63297e-16	
      9544.92246	     2.66129e-16	
      9546.82341	     2.65495e-16	
      9548.72436	     2.68901e-16	
      9550.62531	     2.69481e-16	
      9552.52626	     2.63560e-16	
      9554.42721	     2.61343e-16	
      9556.32816	     2.75363e-16	
      9558.22911	     2.75445e-16	
      9560.13007	     2.66004e-16	
      9562.03102	     2.61882e-16	
      9563.93197	     2.63387e-16	
      9565.83292	     2.70981e-16	
      9567.73387	     2.67473e-16	
      9569.63482	     2.71754e-16	
      9571.53577	     2.82325e-16	
      9573.43672	     2.84616e-16	
      9575.33767	     2.78643e-16	
      9577.23862	     2.67526e-16	
      9579.13957	     2.60881e-16	
      9581.04052	     2.69245e-16	
      9582.94147	     2.75199e-16	
      9584.84242	     2.59799e-16	
      9586.74337	     2.43365e-16	
      9588.64432	     2.48260e-16	
      9590.54527	     2.47426e-16	
      9592.44622	     2.55497e-16	
      9594.34717	     2.63195e-16	
      9596.24812	     2.68769e-16	
      9598.14907	     2.86955e-16	
      9600.05003	     3.02720e-16	
      9601.95098	     3.03859e-16	
      9603.85193	     3.05423e-16	
      9605.75288	     2.89678e-16	
      9607.65383	     2.75556e-16	
      9609.55478	     2.65505e-16	
      9611.45573	     2.66789e-16	
      9613.35668	     2.74640e-16	
      9615.25763	     2.81893e-16	
      9617.15858	     2.76551e-16	
      9619.05953	     2.74286e-16	
      9620.96048	     2.81271e-16	
      9622.86143	     2.83430e-16	
      9624.76238	     2.82358e-16	
      9626.66333	     2.89997e-16	
      9628.56428	     2.77518e-16	
      9630.46523	     2.65765e-16	
      9632.36618	     2.54656e-16	
      9634.26713	     2.41361e-16	
      9636.16808	     2.36241e-16	
      9638.06903	     2.53604e-16	
      9639.96998	     2.54188e-16	
      9641.87094	     2.67338e-16	
      9643.77189	     2.71752e-16	
      9645.67284	     2.76320e-16	
      9647.57379	     2.81985e-16	
      9649.47474	     2.91182e-16	
      9651.37569	     3.00122e-16	
      9653.27664	     3.00024e-16	
      9655.17759	     3.09262e-16	
      9657.07854	     3.24855e-16	
      9658.97949	     3.28413e-16	
      9660.88044	     3.31428e-16	
      9662.78139	     3.26563e-16	
      9664.68234	     3.29367e-16	
      9666.58329	     3.27488e-16	
      9668.48424	     3.27531e-16	
      9670.38519	     3.29576e-16	
      9672.28614	     3.27658e-16	
      9674.18709	     3.29973e-16	
      9676.08804	     3.28554e-16	
      9677.98899	     3.32836e-16	
      9679.88994	     3.28250e-16	
      9681.79090	     3.14901e-16	
      9683.69185	     3.07074e-16	
      9685.59280	     3.16610e-16	
      9687.49375	     3.28521e-16	
      9689.39470	     3.26110e-16	
      9691.29565	     3.43183e-16	
      9693.19660	     3.55797e-16	
      9695.09755	     3.51632e-16	
      9696.99850	     3.47329e-16	
      9698.89945	     3.47496e-16	
      9700.80040	     3.24539e-16	
      9702.70135	     3.22286e-16	
      9704.60230	     3.34171e-16	
      9706.50325	     3.38538e-16	
      9708.40420	     3.44529e-16	
      9710.30515	     3.53632e-16	
      9712.20610	     3.54219e-16	
      9714.10705	     3.56834e-16	
      9716.00800	     3.54728e-16	
      9717.90895	     3.38130e-16	
      9719.80990	     3.26012e-16	
      9721.71086	     3.22606e-16	
      9723.61181	     3.11275e-16	
      9725.51276	     3.01741e-16	
      9727.41371	     2.97873e-16	
      9729.31466	     2.90589e-16	
      9731.21561	     2.92568e-16	
      9733.11656	     2.88969e-16	
      9735.01751	     2.87480e-16	
      9736.91846	     2.93913e-16	
      9738.81941	     2.87424e-16	
      9740.72036	     2.91854e-16	
      9742.62131	     2.93028e-16	
      9744.52226	     2.83683e-16	
      9746.42321	     2.87986e-16	
      9748.32416	     2.94682e-16	
      9750.22511	     2.97182e-16	
      9752.12606	     2.96179e-16	
      9754.02701	     2.99256e-16	
      9755.92796	     3.01105e-16	
      9757.82891	     3.04217e-16	
      9759.72986	     3.04987e-16	
      9761.63082	     3.08226e-16	
      9763.53177	     3.04224e-16	
      9765.43272	     3.04916e-16	
      9767.33367	     3.06812e-16	
      9769.23462	     3.17169e-16	
      9771.13557	     3.10995e-16	
      9773.03652	     3.06434e-16	
      9774.93747	     3.28656e-16	
      9776.83842	     3.32173e-16	
      9778.73937	     3.15593e-16	
      9780.64032	     3.22580e-16	
      9782.54127	     3.22871e-16	
      9784.44222	     3.18625e-16	
      9786.34317	     3.28132e-16	
      9788.24412	     3.40613e-16	
      9790.14507	     3.61219e-16	
      9792.04602	     3.65210e-16	
      9793.94697	     3.74487e-16	
      9795.84792	     3.94174e-16	
      9797.74887	     4.02352e-16	
      9799.64982	     3.89534e-16	
      9801.55078	     3.94012e-16	
      9803.45173	     3.85975e-16	
      9805.35268	     3.93555e-16	
      9807.25363	     3.94188e-16	
      9809.15458	     3.82144e-16	
      9811.05553	     3.58194e-16	
      9812.95648	     3.44902e-16	
      9814.85743	     3.48487e-16	
      9816.75838	     3.53008e-16	
      9818.65933	     3.52420e-16	
      9820.56028	     3.55378e-16	
      9822.46123	     3.49639e-16	
      9824.36218	     3.48176e-16	
      9826.26313	     3.52673e-16	
      9828.16408	     3.51237e-16	
      9830.06503	     3.54076e-16	
      9831.96598	     3.47530e-16	
      9833.86693	     3.35442e-16	
      9835.76788	     3.31849e-16	
      9837.66883	     3.29846e-16	
      9839.56978	     3.24233e-16	
      9841.47074	     3.39241e-16	
      9843.37169	     3.47086e-16	
      9845.27264	     3.37690e-16	
      9847.17359	     3.28642e-16	
      9849.07454	     3.28881e-16	
      9850.97549	     3.55851e-16	
      9852.87644	     3.67185e-16	
      9854.77739	     3.80639e-16	
      9856.67834	     3.97128e-16	
      9858.57929	     3.93435e-16	
      9860.48024	     4.03027e-16	
      9862.38119	     3.90536e-16	
      9864.28214	     3.78975e-16	
      9866.18309	     3.76132e-16	
      9868.08404	     4.00135e-16	
      9869.98499	     4.06753e-16	
      9871.88594	     3.96296e-16	
      9873.78689	     3.99069e-16	
      9875.68784	     3.98946e-16	
      9877.58879	     3.94033e-16	
      9879.48974	     3.96363e-16	
      9881.39070	     4.11513e-16	
      9883.29165	     4.13797e-16	
      9885.19260	     3.97441e-16	
      9887.09355	     3.94885e-16	
      9888.99450	     3.88283e-16	
      9890.89545	     3.56814e-16	
      9892.79640	     3.24407e-16	
      9894.69735	     2.98141e-16	
      9896.59830	     2.78530e-16	
      9898.49925	     2.66477e-16	
      9900.40020	     2.41214e-16	
      9902.30115	     2.16839e-16	
      9904.20210	     2.16414e-16	
      9906.10305	     2.01408e-16	
      9908.00400	     2.09968e-16	
      9909.90495	     2.14021e-16	
      9911.80590	     2.05820e-16	
      9913.70685	     2.09748e-16	
      9915.60780	     2.05639e-16	
      9917.50875	     2.06488e-16	
      9919.40970	     2.12611e-16	
      9921.31066	     2.10622e-16	
      9923.21161	     2.10266e-16	
      9925.11256	     2.33412e-16	
      9927.01351	     2.43406e-16	
      9928.91446	     2.40853e-16	
      9930.81541	     2.50284e-16	
      9932.71636	     2.68973e-16	
      9934.61731	     2.71690e-16	
      9936.51826	     2.97982e-16	
      9938.41921	     2.90719e-16	
      9940.32016	     2.98485e-16	
      9942.22111	     3.02410e-16	
      9944.12206	     3.18430e-16	
      9946.02301	     3.28768e-16	
      9947.92396	     3.31217e-16	
      9949.82491	     3.08239e-16	
      9951.72586	     3.22902e-16	
      9953.62681	     3.18480e-16	
      9955.52776	     3.07101e-16	
      9957.42871	     3.03782e-16	
      9959.32966	     3.05413e-16	
      9961.23062	     3.17828e-16	
      9963.13157	     3.17704e-16	
      9965.03252	     2.94170e-16	
      9966.93347	     2.52869e-16	
      9968.83442	     2.39239e-16	
      9970.73537	     2.48050e-16	
      9972.63632	     2.44880e-16	
      9974.53727	     2.55555e-16	
      9976.43822	     2.53602e-16	
      9978.33917	     2.54604e-16	
      9980.24012	     2.41968e-16	
      9982.14107	     2.42378e-16	
      9984.04202	     2.35707e-16	
      9985.94297	     2.22399e-16	
      9987.84392	     2.26359e-16	
      9989.74487	     2.27182e-16	
      9991.64582	     2.35579e-16	
      9993.54677	     2.43712e-16	
      9995.44772	     2.60241e-16	
      9997.34867	     2.73069e-16	
      9999.24962	     2.87127e-16	
     10001.15058	     2.97699e-16	
     10003.05153	     2.96167e-16	
     10004.95248	     3.08201e-16	
     10006.85343	     3.11830e-16	
     10008.75438	     3.15969e-16	
     10010.65533	     3.12046e-16	
     10012.55628	     3.06384e-16	
     10014.45723	     3.21635e-16	
     10016.35818	     3.18689e-16	
     10018.25913	     3.19858e-16	
     10020.16008	     3.18137e-16	
     10022.06103	     2.96107e-16	
     10023.96198	     2.89531e-16	
     10025.86293	     3.08756e-16	
     10027.76388	     2.88454e-16	
     10029.66483	     2.60466e-16	
     10031.56578	     2.68949e-16	
     10033.46673	     2.52901e-16	
     10035.36768	     2.47919e-16	
     10037.26863	     2.57097e-16	
     10039.16958	     2.68086e-16	
     10041.07054	     2.81022e-16	
     10042.97149	     2.86118e-16	
     10044.87244	     2.75120e-16	
     10046.77339	     2.66823e-16	
     10048.67434	     2.35469e-16	
     10050.57529	     2.24056e-16	
     10052.47624	     2.26976e-16	
     10054.37719	     2.44283e-16	
     10056.27814	     2.59769e-16	
     10058.17909	     2.74951e-16	
     10060.08004	     3.13224e-16	
     10061.98099	     3.18511e-16	
     10063.88194	     3.14958e-16	
     10065.78289	     3.28452e-16	
     10067.68384	     3.15623e-16	
     10069.58479	     3.21377e-16	
     10071.48574	     3.06749e-16	
     10073.38669	     3.23579e-16	
     10075.28764	     3.12366e-16	
     10077.18859	     3.00600e-16	
     10079.08954	     2.88016e-16	
     10080.99050	     3.06015e-16	
     10082.89145	     3.10047e-16	
     10084.79240	     3.16189e-16	
     10086.69335	     2.92066e-16	
     10088.59430	     2.88042e-16	
     10090.49525	     2.80078e-16	
     10092.39620	     3.00179e-16	
     10094.29715	     3.26642e-16	
     10096.19810	     3.47181e-16	
     10098.09905	     3.41296e-16	
     10100.00000	     3.23615e-16	
#time:0.026495
