# Keck LRIS spectra of late-M, L and T dwarfs
# spty = M5  (Spectral type)
#
#    WAVELENGTH	#            FLUX	
#    (ANGSTROM)	#   (ERG/CM2/S/A)	
###############	#################	
     6160.00000	      2.93730e-18	
     6161.90000	      1.18719e-18	
     6163.80000	      2.01537e-18	
     6165.70000	      2.33424e-18	
     6167.60000	      3.75898e-18	
     6169.50000	      2.79023e-18	
     6171.40000	      3.21779e-18	
     6173.30000	      3.42442e-18	
     6175.20000	      2.20411e-18	
     6177.10000	      2.84712e-18	
     6179.00000	      3.56544e-18	
     6180.90000	      4.59806e-18	
     6182.80000	      3.32416e-18	
     6184.70000	      4.86435e-18	
     6186.60000	      4.05498e-18	
     6188.50000	      3.26535e-18	
     6190.40000	      2.67374e-18	
     6192.30000	      2.66731e-18	
     6194.20000	      2.39291e-18	
     6196.10000	      2.72894e-19	
     6198.00000	     -1.16685e-18	
     6199.90000	      5.94893e-19	
     6201.80000	      2.79855e-18	
     6203.70000	      3.15829e-18	
     6205.60000	      2.56005e-18	
     6207.50000	      1.36256e-18	
     6209.40000	      3.11527e-18	
     6211.30000	      2.09472e-18	
     6213.20000	      3.38428e-18	
     6215.10000	      3.42132e-18	
     6217.00000	      8.11372e-19	
     6218.90000	      2.67797e-18	
     6220.80000	      4.26833e-18	
     6222.70000	      2.40584e-18	
     6224.60000	      1.75165e-18	
     6226.50000	      1.05839e-18	
     6228.40000	      3.70947e-18	
     6230.30000	      4.22811e-18	
     6232.20000	      2.59399e-18	
     6234.10000	      1.64329e-18	
     6236.00000	      2.49738e-18	
     6237.90000	      1.42943e-18	
     6239.80000	      5.06637e-19	
     6241.70000	      1.73430e-18	
     6243.60000	      2.71591e-18	
     6245.50000	      3.06208e-18	
     6247.40000	      1.46862e-18	
     6249.30000	     -2.58515e-18	
     6251.20000	     -7.07709e-19	
     6253.10000	      2.03157e-18	
     6255.00000	      3.05834e-18	
     6256.90000	      1.92474e-18	
     6258.80000	      4.80299e-18	
     6260.70000	      4.06397e-18	
     6262.60000	      2.77284e-18	
     6264.50000	      5.65294e-18	
     6266.40000	      4.42340e-18	
     6268.30000	      3.05010e-18	
     6270.20000	      3.60808e-18	
     6272.10000	      2.85727e-18	
     6274.00000	      4.07500e-18	
     6275.90000	      2.24432e-18	
     6277.80000	     -1.74696e-19	
     6279.70000	      2.63035e-18	
     6281.60000	      2.78224e-18	
     6283.50000	      2.72126e-18	
     6285.40000	      4.11418e-18	
     6287.30000	      4.72427e-18	
     6289.20000	      4.67230e-18	
     6291.10000	      2.53437e-18	
     6293.00000	      5.07059e-18	
     6294.90000	      6.55504e-18	
     6296.80000	      5.13934e-18	
     6298.70000	      5.55709e-18	
     6300.60000	      4.81002e-18	
     6302.50000	      4.84430e-18	
     6304.40000	      5.92065e-18	
     6306.30000	      4.61889e-18	
     6308.20000	      4.93096e-18	
     6310.10000	      6.04932e-18	
     6312.00000	      7.00622e-18	
     6313.90000	      7.43734e-18	
     6315.80000	      8.29159e-18	
     6317.70000	      8.43223e-18	
     6319.60000	      7.39131e-18	
     6321.50000	      5.00622e-18	
     6323.40000	      9.02031e-18	
     6325.30000	      7.71512e-18	
     6327.20000	      7.95680e-18	
     6329.10000	      5.80739e-18	
     6331.00000	      5.63436e-18	
     6332.90000	      7.37239e-18	
     6334.80000	      7.23408e-18	
     6336.70000	      8.17251e-18	
     6338.60000	      9.42697e-18	
     6340.50000	      9.91933e-18	
     6342.40000	      9.60517e-18	
     6344.30000	      1.02994e-17	
     6346.20000	      1.13045e-17	
     6348.10000	      9.47663e-18	
     6350.00000	      1.00796e-17	
     6351.90000	      9.09706e-18	
     6353.80000	      8.72737e-18	
     6355.70000	      1.02978e-17	
     6357.60000	      7.34328e-18	
     6359.50000	      9.37005e-18	
     6361.40000	      8.68441e-18	
     6363.30000	      4.18722e-18	
     6365.20000	      7.08190e-18	
     6367.10000	      9.35864e-18	
     6369.00000	      6.71169e-18	
     6370.90000	      7.08623e-18	
     6372.80000	      7.46506e-18	
     6374.70000	      8.82047e-18	
     6376.60000	      8.13975e-18	
     6378.50000	      6.48264e-18	
     6380.40000	      6.73477e-18	
     6382.30000	      5.08089e-18	
     6384.20000	      6.53329e-18	
     6386.10000	      8.82339e-18	
     6388.00000	      5.21594e-18	
     6389.90000	      7.87505e-18	
     6391.80000	      1.07073e-17	
     6393.70000	      8.72233e-18	
     6395.60000	      1.01648e-17	
     6397.50000	      1.00410e-17	
     6399.40000	      1.06978e-17	
     6401.30000	      1.20433e-17	
     6403.20000	      1.04812e-17	
     6405.10000	      1.05817e-17	
     6407.00000	      1.24612e-17	
     6408.90000	      1.30549e-17	
     6410.80000	      1.08744e-17	
     6412.70000	      1.28024e-17	
     6414.60000	      1.14976e-17	
     6416.50000	      8.52678e-18	
     6418.40000	      9.21774e-18	
     6420.30000	      1.00887e-17	
     6422.20000	      9.97617e-18	
     6424.10000	      9.96368e-18	
     6426.00000	      1.17885e-17	
     6427.90000	      1.18331e-17	
     6429.80000	      1.05873e-17	
     6431.70000	      1.02790e-17	
     6433.60000	      1.25820e-17	
     6435.50000	      1.07256e-17	
     6437.40000	      1.24996e-17	
     6439.30000	      1.11993e-17	
     6441.20000	      1.04568e-17	
     6443.10000	      1.30237e-17	
     6445.00000	      1.36891e-17	
     6446.90000	      1.11219e-17	
     6448.80000	      1.18645e-17	
     6450.70000	      1.25266e-17	
     6452.60000	      1.14212e-17	
     6454.50000	      1.20435e-17	
     6456.40000	      1.25176e-17	
     6458.30000	      1.29961e-17	
     6460.20000	      1.23034e-17	
     6462.10000	      1.07340e-17	
     6464.00000	      8.51080e-18	
     6465.90000	      1.33819e-17	
     6467.80000	      1.59979e-17	
     6469.70000	      1.44758e-17	
     6471.60000	      1.38283e-17	
     6473.50000	      1.38727e-17	
     6475.40000	      3.91274e-18	
     6477.30000	      1.03908e-17	
     6479.20000	      1.53032e-17	
     6481.10000	      1.29510e-17	
     6483.00000	      1.10242e-17	
     6484.90000	      1.32530e-17	
     6486.80000	      1.32805e-17	
     6488.70000	      1.41511e-17	
     6490.60000	      1.06794e-17	
     6492.50000	      1.35832e-17	
     6494.40000	      1.20233e-17	
     6496.30000	      1.00178e-17	
     6498.20000	      1.28818e-17	
     6500.10000	      1.57431e-17	
     6502.00000	      1.45233e-17	
     6503.90000	      1.57034e-17	
     6505.80000	      1.52528e-17	
     6507.70000	      1.50380e-17	
     6509.60000	      1.32907e-17	
     6511.50000	      1.39443e-17	
     6513.40000	      1.54170e-17	
     6515.30000	      1.49392e-17	
     6517.20000	      1.63502e-17	
     6519.10000	      1.68565e-17	
     6521.00000	      1.65026e-17	
     6522.90000	      1.67212e-17	
     6524.80000	      1.74462e-17	
     6526.70000	      1.73043e-17	
     6528.60000	      1.78756e-17	
     6530.50000	      1.89646e-17	
     6532.40000	      1.52312e-17	
     6534.30000	      1.73185e-17	
     6536.20000	      1.91480e-17	
     6538.10000	      2.11774e-17	
     6540.00000	      2.05091e-17	
     6541.90000	      2.01820e-17	
     6543.80000	      1.62365e-17	
     6545.70000	      1.46986e-17	
     6547.60000	      1.58226e-17	
     6549.50000	      1.71510e-17	
     6551.40000	      1.58712e-17	
     6553.30000	      1.43933e-17	
     6555.20000	      1.69491e-17	
     6557.10000	      1.67533e-17	
     6559.00000	      1.75661e-17	
     6560.90000	      2.11799e-17	
     6562.80000	      2.08721e-17	
     6564.70000	      1.94372e-17	
     6566.60000	      1.82796e-17	
     6568.50000	      1.53376e-17	
     6570.40000	      1.40370e-17	
     6572.30000	      1.35513e-17	
     6574.20000	      1.43172e-17	
     6576.10000	      1.37508e-17	
     6578.00000	      1.18181e-17	
     6579.90000	      1.22056e-17	
     6581.80000	      1.11288e-17	
     6583.70000	      1.21620e-17	
     6585.60000	      1.63573e-17	
     6587.50000	      1.58243e-17	
     6589.40000	      1.46686e-17	
     6591.30000	      1.50697e-17	
     6593.20000	      1.52018e-17	
     6595.10000	      1.36531e-17	
     6597.00000	      1.25618e-17	
     6598.90000	      1.30021e-17	
     6600.80000	      1.42434e-17	
     6602.70000	      1.35927e-17	
     6604.60000	      1.30239e-17	
     6606.50000	      1.20012e-17	
     6608.40000	      1.33588e-17	
     6610.30000	      1.23077e-17	
     6612.20000	      1.17599e-17	
     6614.10000	      1.41783e-17	
     6616.00000	      1.35255e-17	
     6617.90000	      1.30767e-17	
     6619.80000	      1.15664e-17	
     6621.70000	      1.30560e-17	
     6623.60000	      1.34567e-17	
     6625.50000	      9.41476e-18	
     6627.40000	      9.41587e-18	
     6629.30000	      1.18326e-17	
     6631.20000	      1.11467e-17	
     6633.10000	      1.18882e-17	
     6635.00000	      9.36890e-18	
     6636.90000	      1.11864e-17	
     6638.80000	      1.04177e-17	
     6640.70000	      1.03181e-17	
     6642.60000	      1.06955e-17	
     6644.50000	      1.14169e-17	
     6646.40000	      9.32143e-18	
     6648.30000	      9.26531e-18	
     6650.20000	      9.32271e-18	
     6652.10000	      8.44715e-18	
     6654.00000	      8.68472e-18	
     6655.90000	      8.07552e-18	
     6657.80000	      8.04014e-18	
     6659.70000	      9.45439e-18	
     6661.60000	      8.41109e-18	
     6663.50000	      7.98703e-18	
     6665.40000	      8.93019e-18	
     6667.30000	      1.02316e-17	
     6669.20000	      1.12207e-17	
     6671.10000	      1.11161e-17	
     6673.00000	      1.02925e-17	
     6674.90000	      9.57542e-18	
     6676.80000	      1.14361e-17	
     6678.70000	      9.58840e-18	
     6680.60000	      7.57202e-18	
     6682.50000	      8.19529e-18	
     6684.40000	      6.73285e-18	
     6686.30000	      6.03194e-18	
     6688.20000	      1.06929e-17	
     6690.10000	      9.60651e-18	
     6692.00000	      9.37624e-18	
     6693.90000	      7.39805e-18	
     6695.80000	      7.92857e-18	
     6697.70000	      1.01351e-17	
     6699.60000	      9.98026e-18	
     6701.50000	      1.16745e-17	
     6703.40000	      1.07578e-17	
     6705.30000	      9.19161e-18	
     6707.20000	      8.53343e-18	
     6709.10000	      8.90142e-18	
     6711.00000	      9.05305e-18	
     6712.90000	      6.65372e-18	
     6714.80000	      6.29641e-18	
     6716.70000	      8.10795e-18	
     6718.60000	      6.66582e-18	
     6720.50000	      8.27384e-18	
     6722.40000	      6.58236e-18	
     6724.30000	      8.59721e-18	
     6726.20000	      8.85897e-18	
     6728.10000	      7.85662e-18	
     6730.00000	      8.22513e-18	
     6731.90000	      8.44010e-18	
     6733.80000	      8.51692e-18	
     6735.70000	      6.85249e-18	
     6737.60000	      8.30657e-18	
     6739.50000	      9.99437e-18	
     6741.40000	      8.65694e-18	
     6743.30000	      9.84631e-18	
     6745.20000	      8.39289e-18	
     6747.10000	      7.48332e-18	
     6749.00000	      6.24550e-18	
     6750.90000	      7.55351e-18	
     6752.80000	      8.66292e-18	
     6754.70000	      8.15197e-18	
     6756.60000	      7.68810e-18	
     6758.50000	      7.59114e-18	
     6760.40000	      8.52063e-18	
     6762.30000	      1.01825e-17	
     6764.20000	      9.40295e-18	
     6766.10000	      1.10614e-17	
     6768.00000	      1.07143e-17	
     6769.90000	      1.14996e-17	
     6771.80000	      1.08931e-17	
     6773.70000	      7.70983e-18	
     6775.60000	      1.04666e-17	
     6777.50000	      1.13812e-17	
     6779.40000	      1.03164e-17	
     6781.30000	      9.81248e-18	
     6783.20000	      1.02187e-17	
     6785.10000	      1.06000e-17	
     6787.00000	      9.44505e-18	
     6788.90000	      9.07426e-18	
     6790.80000	      6.74930e-18	
     6792.70000	      7.16498e-18	
     6794.60000	      8.89956e-18	
     6796.50000	      7.14502e-18	
     6798.40000	      7.74691e-18	
     6800.30000	      1.10629e-17	
     6802.20000	      1.09234e-17	
     6804.10000	      8.86643e-18	
     6806.00000	      1.06999e-17	
     6807.90000	      1.02005e-17	
     6809.80000	      9.56674e-18	
     6811.70000	      9.06287e-18	
     6813.60000	      9.17883e-18	
     6815.50000	      9.07135e-18	
     6817.40000	      8.90194e-18	
     6819.30000	      9.98162e-18	
     6821.20000	      9.05674e-18	
     6823.10000	      8.84643e-18	
     6825.00000	      7.30481e-18	
     6826.90000	      7.57939e-18	
     6828.80000	      9.03615e-18	
     6830.70000	      9.74825e-18	
     6832.60000	      1.06779e-17	
     6834.50000	      9.56240e-18	
     6836.40000	      9.36117e-18	
     6838.30000	      1.07189e-17	
     6840.20000	      9.72023e-18	
     6842.10000	      1.04782e-17	
     6844.00000	      1.18433e-17	
     6845.90000	      1.01639e-17	
     6847.80000	      1.01055e-17	
     6849.70000	      9.42536e-18	
     6851.60000	      8.96620e-18	
     6853.50000	      8.31033e-18	
     6855.40000	      9.07733e-18	
     6857.30000	      8.47950e-18	
     6859.20000	      7.77931e-18	
     6861.10000	      9.58652e-18	
     6863.00000	      1.05748e-17	
     6864.90000	      9.08880e-18	
     6866.80000	      6.02325e-18	
     6868.70000	      6.92191e-18	
     6870.60000	      9.15078e-18	
     6872.50000	      1.18780e-17	
     6874.40000	      8.91459e-18	
     6876.30000	      1.07230e-17	
     6878.20000	      1.08464e-17	
     6880.10000	      1.27342e-17	
     6882.00000	      1.18414e-17	
     6883.90000	      9.54971e-18	
     6885.80000	      8.14204e-18	
     6887.70000	      9.35547e-18	
     6889.60000	      1.16960e-17	
     6891.50000	      1.21469e-17	
     6893.40000	      1.16065e-17	
     6895.30000	      1.18434e-17	
     6897.20000	      1.17199e-17	
     6899.10000	      1.16496e-17	
     6901.00000	      9.12381e-18	
     6902.90000	      1.11462e-17	
     6904.80000	      1.15005e-17	
     6906.70000	      1.24489e-17	
     6908.60000	      1.32046e-17	
     6910.50000	      1.09548e-17	
     6912.40000	      1.27703e-17	
     6914.30000	      1.19616e-17	
     6916.20000	      1.99560e-17	
     6918.10000	      1.41407e-17	
     6920.00000	      1.40283e-17	
     6921.90000	      1.20179e-17	
     6923.80000	      1.35996e-17	
     6925.70000	      1.39427e-17	
     6927.60000	      1.42435e-17	
     6929.50000	      1.57787e-17	
     6931.40000	      1.41223e-17	
     6933.30000	      1.38608e-17	
     6935.20000	      1.43351e-17	
     6937.10000	      1.49237e-17	
     6939.00000	      1.63334e-17	
     6940.90000	      1.50487e-17	
     6942.80000	      1.65449e-17	
     6944.70000	      1.96148e-17	
     6946.60000	      1.90931e-17	
     6948.50000	      1.73797e-17	
     6950.40000	      1.86572e-17	
     6952.30000	      1.87197e-17	
     6954.20000	      1.86717e-17	
     6956.10000	      1.92567e-17	
     6958.00000	      1.77446e-17	
     6959.90000	      1.83063e-17	
     6961.80000	      1.78311e-17	
     6963.70000	      1.69827e-17	
     6965.60000	      1.86740e-17	
     6967.50000	      1.90071e-17	
     6969.40000	      2.04275e-17	
     6971.30000	      2.02570e-17	
     6973.20000	      1.97650e-17	
     6975.10000	      1.88626e-17	
     6977.00000	      2.05887e-17	
     6978.90000	      1.98398e-17	
     6980.80000	      1.89459e-17	
     6982.70000	      2.01726e-17	
     6984.60000	      1.94475e-17	
     6986.50000	      2.00689e-17	
     6988.40000	      1.95754e-17	
     6990.30000	      2.06023e-17	
     6992.20000	      2.03832e-17	
     6994.10000	      2.18437e-17	
     6996.00000	      2.16216e-17	
     6997.90000	      1.97746e-17	
     6999.80000	      2.02130e-17	
     7001.70000	      2.09301e-17	
     7003.60000	      2.13539e-17	
     7005.50000	      2.28054e-17	
     7007.40000	      2.08518e-17	
     7009.30000	      2.06374e-17	
     7011.20000	      2.26412e-17	
     7013.10000	      2.57843e-17	
     7015.00000	      2.23551e-17	
     7016.90000	      2.03764e-17	
     7018.80000	      2.15888e-17	
     7020.70000	      2.42027e-17	
     7022.60000	      2.05215e-17	
     7024.50000	      2.19159e-17	
     7026.40000	      2.29809e-17	
     7028.30000	      2.52251e-17	
     7030.20000	      2.66578e-17	
     7032.10000	      2.97578e-17	
     7034.00000	      2.75230e-17	
     7035.90000	      2.94378e-17	
     7037.80000	      2.78820e-17	
     7039.70000	      2.90773e-17	
     7041.60000	      3.07431e-17	
     7043.50000	      3.04059e-17	
     7045.40000	      3.02005e-17	
     7047.30000	      3.08424e-17	
     7049.20000	      3.12792e-17	
     7051.10000	      2.69362e-17	
     7053.00000	      2.10791e-17	
     7054.90000	      1.72969e-17	
     7056.80000	      1.67207e-17	
     7058.70000	      1.68574e-17	
     7060.60000	      8.94699e-18	
     7062.50000	     -3.45496e-18	
     7064.40000	      1.57026e-18	
     7066.30000	      1.50287e-17	
     7068.20000	      1.45256e-17	
     7070.10000	      1.55957e-17	
     7072.00000	      1.81904e-17	
     7073.90000	      1.95672e-17	
     7075.80000	      1.74819e-17	
     7077.70000	      1.82342e-17	
     7079.60000	      1.90893e-17	
     7081.50000	      2.07053e-17	
     7083.40000	      1.88651e-17	
     7085.30000	      1.51784e-17	
     7087.20000	      1.32983e-17	
     7089.10000	      1.25971e-17	
     7091.00000	      1.26963e-17	
     7092.90000	      9.21737e-18	
     7094.80000	      1.03360e-17	
     7096.70000	      1.20717e-17	
     7098.60000	      1.23182e-17	
     7100.50000	      1.16134e-17	
     7102.40000	      1.16270e-17	
     7104.30000	      1.23893e-17	
     7106.20000	      1.51499e-17	
     7108.10000	      1.62661e-17	
     7110.00000	      1.69928e-17	
     7111.90000	      1.35301e-17	
     7113.80000	      1.56611e-17	
     7115.70000	      1.46272e-17	
     7117.60000	      1.69361e-17	
     7119.50000	      1.61401e-17	
     7121.40000	      1.49774e-17	
     7123.30000	      1.33773e-17	
     7125.20000	      9.93362e-18	
     7127.10000	      1.16684e-17	
     7129.00000	      8.81478e-18	
     7130.90000	      9.45219e-18	
     7132.80000	      8.85831e-18	
     7134.70000	      1.06209e-17	
     7136.60000	      1.01802e-17	
     7138.50000	      1.01122e-17	
     7140.40000	      8.39500e-18	
     7142.30000	      9.22112e-18	
     7144.20000	      1.08377e-17	
     7146.10000	      1.08815e-17	
     7148.00000	      9.52258e-18	
     7149.90000	      1.14082e-17	
     7151.80000	      1.21356e-17	
     7153.70000	      1.05286e-17	
     7155.60000	      1.35281e-17	
     7157.50000	      1.21364e-17	
     7159.40000	      1.15886e-17	
     7161.30000	      1.23765e-17	
     7163.20000	      1.15463e-17	
     7165.10000	      1.22008e-17	
     7167.00000	      1.25829e-17	
     7168.90000	      1.25852e-17	
     7170.80000	      1.23025e-17	
     7172.70000	      1.30967e-17	
     7174.60000	      1.26534e-17	
     7176.50000	      1.22475e-17	
     7178.40000	      1.29737e-17	
     7180.30000	      1.20296e-17	
     7182.20000	      1.39515e-17	
     7184.10000	      1.51185e-17	
     7186.00000	      1.37879e-17	
     7187.90000	      1.39378e-17	
     7189.80000	      1.46037e-17	
     7191.70000	      1.70149e-17	
     7193.60000	      1.58756e-17	
     7195.50000	      1.45670e-17	
     7197.40000	      1.35026e-17	
     7199.30000	      1.28440e-17	
     7201.20000	      1.22435e-17	
     7203.10000	      1.34095e-17	
     7205.00000	      1.31333e-17	
     7206.90000	      1.39825e-17	
     7208.80000	      1.46561e-17	
     7210.70000	      1.35954e-17	
     7212.60000	      1.52509e-17	
     7214.50000	      1.62646e-17	
     7216.40000	      1.68075e-17	
     7218.30000	      1.67745e-17	
     7220.20000	      1.62835e-17	
     7222.10000	      1.53541e-17	
     7224.00000	      1.72393e-17	
     7225.90000	      1.79244e-17	
     7227.80000	      1.69171e-17	
     7229.70000	      1.68546e-17	
     7231.60000	      1.71437e-17	
     7233.50000	      1.76582e-17	
     7235.40000	      1.74175e-17	
     7237.30000	      1.88188e-17	
     7239.20000	      1.65740e-17	
     7241.10000	      1.76851e-17	
     7243.00000	      1.88696e-17	
     7244.90000	      1.79090e-17	
     7246.80000	      2.05074e-17	
     7248.70000	      1.89202e-17	
     7250.60000	      2.02560e-17	
     7252.50000	      2.15622e-17	
     7254.40000	      2.11498e-17	
     7256.30000	      2.10284e-17	
     7258.20000	      2.13881e-17	
     7260.10000	      2.23190e-17	
     7262.00000	      2.39776e-17	
     7263.90000	      2.31673e-17	
     7265.80000	      2.38373e-17	
     7267.70000	      2.39345e-17	
     7269.60000	      2.26015e-17	
     7271.50000	      2.36484e-17	
     7273.40000	      2.18292e-17	
     7275.30000	      2.06681e-17	
     7277.20000	      2.41574e-17	
     7279.10000	      2.06545e-17	
     7281.00000	      1.99823e-17	
     7282.90000	      2.44470e-17	
     7284.80000	      2.54825e-17	
     7286.70000	      2.59871e-17	
     7288.60000	      2.57132e-17	
     7290.50000	      2.46724e-17	
     7292.40000	      2.71287e-17	
     7294.30000	      2.81955e-17	
     7296.20000	      2.68450e-17	
     7298.10000	      2.82820e-17	
     7300.00000	      2.95205e-17	
     7301.90000	      2.93589e-17	
     7303.80000	      3.00331e-17	
     7305.70000	      3.03442e-17	
     7307.60000	      2.91883e-17	
     7309.50000	      2.79795e-17	
     7311.40000	      2.81041e-17	
     7313.30000	      3.01356e-17	
     7315.20000	      3.13184e-17	
     7317.10000	      2.79678e-17	
     7319.00000	      2.87664e-17	
     7320.90000	      3.01173e-17	
     7322.80000	      4.80225e-17	
     7324.70000	      3.99337e-17	
     7326.60000	      3.23443e-17	
     7328.50000	      3.26282e-17	
     7330.40000	      3.27376e-17	
     7332.30000	      2.95359e-17	
     7334.20000	      3.31591e-17	
     7336.10000	      3.64589e-17	
     7338.00000	      3.56690e-17	
     7339.90000	      3.32828e-17	
     7341.80000	      3.23198e-17	
     7343.70000	      3.29492e-17	
     7345.60000	      3.42050e-17	
     7347.50000	      3.31326e-17	
     7349.40000	      3.70502e-17	
     7351.30000	      3.68087e-17	
     7353.20000	      3.71703e-17	
     7355.10000	      3.53930e-17	
     7357.00000	      3.54372e-17	
     7358.90000	      3.70217e-17	
     7360.80000	      3.42316e-17	
     7362.70000	      3.70790e-17	
     7364.60000	      3.78096e-17	
     7366.50000	      3.62446e-17	
     7368.40000	      3.73538e-17	
     7370.30000	      3.75327e-17	
     7372.20000	      3.51011e-17	
     7374.10000	      3.94257e-17	
     7376.00000	      3.78044e-17	
     7377.90000	      3.77339e-17	
     7379.80000	      4.01174e-17	
     7381.70000	      3.91684e-17	
     7383.60000	      3.88282e-17	
     7385.50000	      3.93386e-17	
     7387.40000	      4.00520e-17	
     7389.30000	      3.88664e-17	
     7391.20000	      3.77889e-17	
     7393.10000	      3.69248e-17	
     7395.00000	      3.77690e-17	
     7396.90000	      3.98214e-17	
     7398.80000	      3.98974e-17	
     7400.70000	      3.77175e-17	
     7402.60000	      3.68529e-17	
     7404.50000	      3.92493e-17	
     7406.40000	      3.90185e-17	
     7408.30000	      4.02504e-17	
     7410.20000	      4.09457e-17	
     7412.10000	      4.33010e-17	
     7414.00000	      4.22090e-17	
     7415.90000	      4.15314e-17	
     7417.80000	      3.95986e-17	
     7419.70000	      3.67245e-17	
     7421.60000	      3.94143e-17	
     7423.50000	      4.27667e-17	
     7425.40000	      4.11032e-17	
     7427.30000	      4.23511e-17	
     7429.20000	      3.84519e-17	
     7431.10000	      3.80458e-17	
     7433.00000	      3.98825e-17	
     7434.90000	      4.10647e-17	
     7436.80000	      4.24342e-17	
     7438.70000	      4.39235e-17	
     7440.60000	      4.10108e-17	
     7442.50000	      4.16749e-17	
     7444.40000	      4.07395e-17	
     7446.30000	      4.09572e-17	
     7448.20000	      4.30181e-17	
     7450.10000	      4.19691e-17	
     7452.00000	      4.15031e-17	
     7453.90000	      4.14571e-17	
     7455.80000	      4.21034e-17	
     7457.70000	      4.48098e-17	
     7459.60000	      4.49837e-17	
     7461.50000	      4.27136e-17	
     7463.40000	      4.07417e-17	
     7465.30000	      4.08975e-17	
     7467.20000	      4.38552e-17	
     7469.10000	      4.24265e-17	
     7471.00000	      3.88488e-17	
     7472.90000	      3.89211e-17	
     7474.80000	      4.07876e-17	
     7476.70000	      4.30786e-17	
     7478.60000	      4.35428e-17	
     7480.50000	      4.54944e-17	
     7482.40000	      4.30705e-17	
     7484.30000	      4.25144e-17	
     7486.20000	      4.29469e-17	
     7488.10000	      4.28577e-17	
     7490.00000	      4.08295e-17	
     7491.90000	      4.18835e-17	
     7493.80000	      4.23273e-17	
     7495.70000	      4.27245e-17	
     7497.60000	      4.50951e-17	
     7499.50000	      4.74957e-17	
     7501.40000	      4.53548e-17	
     7503.30000	      4.48654e-17	
     7505.20000	      4.50717e-17	
     7507.10000	      4.68327e-17	
     7509.00000	      4.46365e-17	
     7510.90000	      4.33112e-17	
     7512.80000	      4.67343e-17	
     7514.70000	      4.61764e-17	
     7516.60000	      4.63452e-17	
     7518.50000	      4.68382e-17	
     7520.40000	      4.49771e-17	
     7522.30000	      4.62638e-17	
     7524.20000	      4.51335e-17	
     7526.10000	      4.52420e-17	
     7528.00000	      4.68578e-17	
     7529.90000	      4.87178e-17	
     7531.80000	      4.65531e-17	
     7533.70000	      4.72315e-17	
     7535.60000	      4.79511e-17	
     7537.50000	      4.71396e-17	
     7539.40000	      4.99094e-17	
     7541.30000	      5.25832e-17	
     7543.20000	      4.80366e-17	
     7545.10000	      4.73851e-17	
     7547.00000	      4.95866e-17	
     7548.90000	      5.01712e-17	
     7550.80000	      4.86330e-17	
     7552.70000	      4.93823e-17	
     7554.60000	      5.03394e-17	
     7556.50000	      4.85474e-17	
     7558.40000	      4.86218e-17	
     7560.30000	      4.67431e-17	
     7562.20000	      4.70483e-17	
     7564.10000	      4.89707e-17	
     7566.00000	      4.74573e-17	
     7567.90000	      4.69491e-17	
     7569.80000	      5.05515e-17	
     7571.70000	      4.98423e-17	
     7573.60000	      4.79179e-17	
     7575.50000	      4.98991e-17	
     7577.40000	      5.07223e-17	
     7579.30000	      5.28961e-17	
     7581.20000	      5.29051e-17	
     7583.10000	      5.16360e-17	
     7585.00000	      4.72337e-17	
     7586.90000	      4.16670e-17	
     7588.80000	      3.43694e-17	
     7590.70000	      3.31332e-17	
     7592.60000	      2.94160e-17	
     7594.50000	      2.34944e-17	
     7596.40000	      2.02462e-17	
     7598.30000	      1.87195e-17	
     7600.20000	      1.44644e-17	
     7602.10000	      1.46719e-17	
     7604.00000	      1.62801e-17	
     7605.90000	      1.54133e-17	
     7607.80000	      1.75907e-17	
     7609.70000	      2.17137e-17	
     7611.60000	      2.39585e-17	
     7613.50000	      3.00283e-17	
     7615.40000	      3.65872e-17	
     7617.30000	      3.90706e-17	
     7619.20000	      3.71933e-17	
     7621.10000	      3.25048e-17	
     7623.00000	      2.72143e-17	
     7624.90000	      2.37708e-17	
     7626.80000	      2.10268e-17	
     7628.70000	      2.01202e-17	
     7630.60000	      2.17098e-17	
     7632.50000	      2.19222e-17	
     7634.40000	      2.38079e-17	
     7636.30000	      1.33547e-17	
     7638.20000	      7.62394e-18	
     7640.10000	      2.57396e-17	
     7642.00000	      2.52664e-17	
     7643.90000	      2.71271e-17	
     7645.80000	      2.69973e-17	
     7647.70000	      2.74194e-17	
     7649.60000	      2.93075e-17	
     7651.50000	      2.78641e-17	
     7653.40000	      2.95247e-17	
     7655.30000	      3.10846e-17	
     7657.20000	      2.97307e-17	
     7659.10000	      2.66678e-17	
     7661.00000	      2.01416e-17	
     7662.90000	      1.38296e-17	
     7664.80000	      1.64320e-17	
     7666.70000	      2.06961e-17	
     7668.60000	      2.10982e-17	
     7670.50000	      2.26609e-17	
     7672.40000	      2.52303e-17	
     7674.30000	      2.72259e-17	
     7676.20000	      2.68392e-17	
     7678.10000	      2.61745e-17	
     7680.00000	      2.79599e-17	
     7681.90000	      2.78017e-17	
     7683.80000	      2.93711e-17	
     7685.70000	      3.14055e-17	
     7687.60000	      3.06465e-17	
     7689.50000	      2.93417e-17	
     7691.40000	      3.02588e-17	
     7693.30000	      2.56564e-17	
     7695.20000	      2.15055e-17	
     7697.10000	      1.78147e-17	
     7699.00000	      1.99915e-17	
     7700.90000	      2.46312e-17	
     7702.80000	      2.56876e-17	
     7704.70000	      2.64497e-17	
     7706.60000	      2.73183e-17	
     7708.50000	      2.77463e-17	
     7710.40000	      2.58630e-17	
     7712.30000	      2.41282e-17	
     7714.20000	      3.18255e-17	
     7716.10000	      3.26427e-17	
     7718.00000	      3.08195e-17	
     7719.90000	      2.74994e-17	
     7721.80000	      3.27223e-17	
     7723.70000	      3.32617e-17	
     7725.60000	      3.35085e-17	
     7727.50000	      3.35453e-17	
     7729.40000	      3.68898e-17	
     7731.30000	      3.59247e-17	
     7733.20000	      3.33158e-17	
     7735.10000	      3.48036e-17	
     7737.00000	      3.75784e-17	
     7738.90000	      3.63295e-17	
     7740.80000	      3.29757e-17	
     7742.70000	      2.98052e-17	
     7744.60000	      3.07383e-17	
     7746.50000	      2.74727e-17	
     7748.40000	      2.66590e-17	
     7750.30000	      2.86649e-17	
     7752.20000	      3.03263e-17	
     7754.10000	      2.89398e-17	
     7756.00000	      2.67802e-17	
     7757.90000	      2.86112e-17	
     7759.80000	      3.13129e-17	
     7761.70000	      3.31591e-17	
     7763.60000	      2.94158e-17	
     7765.50000	      3.08015e-17	
     7767.40000	      3.55598e-17	
     7769.30000	      3.48054e-17	
     7771.20000	      3.53774e-17	
     7773.10000	      3.64194e-17	
     7775.00000	      3.54159e-17	
     7776.90000	      3.69160e-17	
     7778.80000	      3.43599e-17	
     7780.70000	      3.29530e-17	
     7782.60000	      3.04041e-17	
     7784.50000	      3.10402e-17	
     7786.40000	      3.25420e-17	
     7788.30000	      3.40104e-17	
     7790.20000	      3.24237e-17	
     7792.10000	      3.37286e-17	
     7794.00000	      3.15783e-17	
     7795.90000	      3.25707e-17	
     7797.80000	      2.93409e-17	
     7799.70000	      3.24531e-17	
     7801.60000	      3.45814e-17	
     7803.50000	      3.55181e-17	
     7805.40000	      3.61270e-17	
     7807.30000	      3.88320e-17	
     7809.20000	      3.97930e-17	
     7811.10000	      3.89083e-17	
     7813.00000	      3.71665e-17	
     7814.90000	      3.50597e-17	
     7816.80000	      3.84640e-17	
     7818.70000	      3.96170e-17	
     7820.60000	      3.50474e-17	
     7822.50000	      3.43466e-17	
     7824.40000	      3.41941e-17	
     7826.30000	      3.13932e-17	
     7828.20000	      3.23750e-17	
     7830.10000	      3.38714e-17	
     7832.00000	      3.27147e-17	
     7833.90000	      3.57836e-17	
     7835.80000	      3.68581e-17	
     7837.70000	      3.46797e-17	
     7839.60000	      3.40366e-17	
     7841.50000	      3.50199e-17	
     7843.40000	      3.84631e-17	
     7845.30000	      3.72894e-17	
     7847.20000	      3.61108e-17	
     7849.10000	      3.52193e-17	
     7851.00000	      3.70982e-17	
     7852.90000	      3.86412e-17	
     7854.80000	      3.86776e-17	
     7856.70000	      3.91686e-17	
     7858.60000	      4.09508e-17	
     7860.50000	      3.40315e-17	
     7862.40000	      3.37397e-17	
     7864.30000	      3.64366e-17	
     7866.20000	      4.04880e-17	
     7868.10000	      3.65349e-17	
     7870.00000	      3.53108e-17	
     7871.90000	      3.89387e-17	
     7873.80000	      4.14303e-17	
     7875.70000	      3.97315e-17	
     7877.60000	      4.03282e-17	
     7879.50000	      4.08531e-17	
     7881.40000	      4.05560e-17	
     7883.30000	      4.15513e-17	
     7885.20000	      4.38668e-17	
     7887.10000	      4.41740e-17	
     7889.00000	      4.15427e-17	
     7890.90000	      4.07280e-17	
     7892.80000	      4.13175e-17	
     7894.70000	      4.31631e-17	
     7896.60000	      4.37621e-17	
     7898.50000	      3.95234e-17	
     7900.40000	      4.16754e-17	
     7902.30000	      4.13451e-17	
     7904.20000	      4.09915e-17	
     7906.10000	      3.84992e-17	
     7908.00000	      3.89813e-17	
     7909.90000	      4.14616e-17	
     7911.80000	      3.58949e-17	
     7913.70000	      3.87991e-17	
     7915.60000	      4.00581e-17	
     7917.50000	      3.66118e-17	
     7919.40000	      3.70273e-17	
     7921.30000	      4.09131e-17	
     7923.20000	      3.67737e-17	
     7925.10000	      4.04583e-17	
     7927.00000	      3.96068e-17	
     7928.90000	      4.18259e-17	
     7930.80000	      4.55002e-17	
     7932.70000	      4.17384e-17	
     7934.60000	      4.13300e-17	
     7936.50000	      4.42790e-17	
     7938.40000	      4.49184e-17	
     7940.30000	      4.65134e-17	
     7942.20000	      4.54664e-17	
     7944.10000	      3.82039e-17	
     7946.00000	      4.00705e-17	
     7947.90000	      4.36918e-17	
     7949.80000	      4.62760e-17	
     7951.70000	      4.53270e-17	
     7953.60000	      4.59198e-17	
     7955.50000	      4.58967e-17	
     7957.40000	      4.38783e-17	
     7959.30000	      4.42629e-17	
     7961.20000	      4.57473e-17	
     7963.10000	      4.50261e-17	
     7965.00000	      4.58943e-17	
     7966.90000	      4.66142e-17	
     7968.80000	      4.49493e-17	
     7970.70000	      4.60126e-17	
     7972.60000	      4.62154e-17	
     7974.50000	      4.55256e-17	
     7976.40000	      4.52521e-17	
     7978.30000	      4.70440e-17	
     7980.20000	      4.78590e-17	
     7982.10000	      4.56141e-17	
     7984.00000	      4.46700e-17	
     7985.90000	      4.75314e-17	
     7987.80000	      4.91821e-17	
     7989.70000	      4.85207e-17	
     7991.60000	      4.56688e-17	
     7993.50000	      4.66882e-17	
     7995.40000	      4.83248e-17	
     7997.30000	      4.75664e-17	
     7999.20000	      4.66368e-17	
     8001.10000	      4.91596e-17	
     8003.00000	      5.06588e-17	
     8004.90000	      5.03481e-17	
     8006.80000	      5.17043e-17	
     8008.70000	      4.89497e-17	
     8010.60000	      5.00506e-17	
     8012.50000	      4.95826e-17	
     8014.40000	      5.26276e-17	
     8016.30000	      5.33059e-17	
     8018.20000	      4.85103e-17	
     8020.10000	      5.02085e-17	
     8022.00000	      5.12906e-17	
     8023.90000	      5.11558e-17	
     8025.80000	      5.04856e-17	
     8027.70000	      5.32536e-17	
     8029.60000	      5.48233e-17	
     8031.50000	      5.47646e-17	
     8033.40000	      5.40877e-17	
     8035.30000	      5.27496e-17	
     8037.20000	      5.13466e-17	
     8039.10000	      5.20583e-17	
     8041.00000	      5.40572e-17	
     8042.90000	      5.62486e-17	
     8044.80000	      5.63302e-17	
     8046.70000	      5.48248e-17	
     8048.60000	      5.75196e-17	
     8050.50000	      6.14084e-17	
     8052.40000	      5.92313e-17	
     8054.30000	      5.57918e-17	
     8056.20000	      5.84431e-17	
     8058.10000	      5.69325e-17	
     8060.00000	      5.71079e-17	
     8061.90000	      5.65452e-17	
     8063.80000	      5.75644e-17	
     8065.70000	      5.75044e-17	
     8067.60000	      5.92431e-17	
     8069.50000	      5.72612e-17	
     8071.40000	      5.74108e-17	
     8073.30000	      6.03643e-17	
     8075.20000	      6.09584e-17	
     8077.10000	      6.14018e-17	
     8079.00000	      6.06340e-17	
     8080.90000	      6.11423e-17	
     8082.80000	      5.98679e-17	
     8084.70000	      5.98131e-17	
     8086.60000	      5.71759e-17	
     8088.50000	      5.85833e-17	
     8090.40000	      5.94919e-17	
     8092.30000	      6.38241e-17	
     8094.20000	      6.18927e-17	
     8096.10000	      6.16954e-17	
     8098.00000	      6.35986e-17	
     8099.90000	      6.07668e-17	
     8101.80000	      5.89967e-17	
     8103.70000	      6.06446e-17	
     8105.60000	      6.23481e-17	
     8107.50000	      6.40410e-17	
     8109.40000	      6.51512e-17	
     8111.30000	      6.17723e-17	
     8113.20000	      5.97383e-17	
     8115.10000	      6.10422e-17	
     8117.00000	      6.39488e-17	
     8118.90000	      6.30250e-17	
     8120.80000	      6.54857e-17	
     8122.70000	      6.71806e-17	
     8124.60000	      6.43834e-17	
     8126.50000	      6.51607e-17	
     8128.40000	      6.29873e-17	
     8130.30000	      6.22725e-17	
     8132.20000	      6.36049e-17	
     8134.10000	      6.49069e-17	
     8136.00000	      6.61962e-17	
     8137.90000	      6.49680e-17	
     8139.80000	      5.93129e-17	
     8141.70000	      6.11858e-17	
     8143.60000	      6.16045e-17	
     8145.50000	      6.09821e-17	
     8147.40000	      6.34291e-17	
     8149.30000	      6.10488e-17	
     8151.20000	      6.19955e-17	
     8153.10000	      6.33759e-17	
     8155.00000	      5.98333e-17	
     8156.90000	      5.79167e-17	
     8158.80000	      5.77757e-17	
     8160.70000	      5.84431e-17	
     8162.60000	      5.99996e-17	
     8164.50000	      6.11441e-17	
     8166.40000	      6.33754e-17	
     8168.30000	      6.42931e-17	
     8170.20000	      6.34605e-17	
     8172.10000	      6.07308e-17	
     8174.00000	      5.88205e-17	
     8175.90000	      5.45920e-17	
     8177.80000	      4.70617e-17	
     8179.70000	      4.34559e-17	
     8181.60000	      4.43482e-17	
     8183.50000	      5.01990e-17	
     8185.40000	      5.54077e-17	
     8187.30000	      5.37688e-17	
     8189.20000	      4.51521e-17	
     8191.10000	      3.80123e-17	
     8193.00000	      3.87790e-17	
     8194.90000	      4.61122e-17	
     8196.80000	      5.12178e-17	
     8198.70000	      5.64324e-17	
     8200.60000	      5.78053e-17	
     8202.50000	      6.05836e-17	
     8204.40000	      5.91981e-17	
     8206.30000	      6.42534e-17	
     8208.20000	      6.46236e-17	
     8210.10000	      6.14257e-17	
     8212.00000	      6.22534e-17	
     8213.90000	      6.35306e-17	
     8215.80000	      6.11955e-17	
     8217.70000	      6.15804e-17	
     8219.60000	      6.49498e-17	
     8221.50000	      6.37504e-17	
     8223.40000	      5.88064e-17	
     8225.30000	      5.44771e-17	
     8227.20000	      5.81985e-17	
     8229.10000	      6.02316e-17	
     8231.00000	      5.90039e-17	
     8232.90000	      6.18034e-17	
     8234.80000	      6.43978e-17	
     8236.70000	      6.25809e-17	
     8238.60000	      6.52920e-17	
     8240.50000	      6.56787e-17	
     8242.40000	      6.35348e-17	
     8244.30000	      6.53440e-17	
     8246.20000	      6.63276e-17	
     8248.10000	      6.43731e-17	
     8250.00000	      6.45604e-17	
     8251.90000	      6.34506e-17	
     8253.80000	      5.95846e-17	
     8255.70000	      6.24703e-17	
     8257.60000	      6.60033e-17	
     8259.50000	      6.57620e-17	
     8261.40000	      6.76424e-17	
     8263.30000	      6.71756e-17	
     8265.20000	      6.64623e-17	
     8267.10000	      6.24708e-17	
     8269.00000	      6.10188e-17	
     8270.90000	      6.11860e-17	
     8272.80000	      6.12921e-17	
     8274.70000	      6.25602e-17	
     8276.60000	      5.96299e-17	
     8278.50000	      5.95380e-17	
     8280.40000	      6.14844e-17	
     8282.30000	      5.81841e-17	
     8284.20000	      5.70839e-17	
     8286.10000	      5.65174e-17	
     8288.00000	      5.62218e-17	
     8289.90000	      5.65126e-17	
     8291.80000	      5.81088e-17	
     8293.70000	      5.63489e-17	
     8295.60000	      5.70275e-17	
     8297.50000	      5.74916e-17	
     8299.40000	      5.83127e-17	
     8301.30000	      5.71306e-17	
     8303.20000	      5.64607e-17	
     8305.10000	      5.74982e-17	
     8307.00000	      5.89644e-17	
     8308.90000	      6.03629e-17	
     8310.80000	      5.93685e-17	
     8312.70000	      6.07900e-17	
     8314.60000	      6.04928e-17	
     8316.50000	      6.00426e-17	
     8318.40000	      6.20345e-17	
     8320.30000	      6.36626e-17	
     8322.20000	      6.11770e-17	
     8324.10000	      5.76096e-17	
     8326.00000	      5.96333e-17	
     8327.90000	      5.96784e-17	
     8329.80000	      6.06628e-17	
     8331.70000	      6.14069e-17	
     8333.60000	      5.87314e-17	
     8335.50000	      6.18117e-17	
     8337.40000	      6.60256e-17	
     8339.30000	      6.63010e-17	
     8341.20000	      6.12552e-17	
     8343.10000	      5.55974e-17	
     8345.00000	      5.67858e-17	
     8346.90000	      6.00894e-17	
     8348.80000	      5.55904e-17	
     8350.70000	      5.88086e-17	
     8352.60000	      5.98060e-17	
     8354.50000	      6.29987e-17	
     8356.40000	      6.68187e-17	
     8358.30000	      6.23882e-17	
     8360.20000	      6.10558e-17	
     8362.10000	      5.93042e-17	
     8364.00000	      6.14102e-17	
     8365.90000	      6.25816e-17	
     8367.80000	      6.20812e-17	
     8369.70000	      5.90228e-17	
     8371.60000	      5.84004e-17	
     8373.50000	      5.59708e-17	
     8375.40000	      6.03137e-17	
     8377.30000	      5.51366e-17	
     8379.20000	      5.23934e-17	
     8381.10000	      5.52596e-17	
     8383.00000	      5.54243e-17	
     8384.90000	      5.49650e-17	
     8386.80000	      5.60776e-17	
     8388.70000	      5.98523e-17	
     8390.60000	      5.94409e-17	
     8392.50000	      5.85415e-17	
     8394.40000	      6.05710e-17	
     8396.30000	      6.22548e-17	
     8398.20000	      6.05651e-17	
     8400.10000	      6.29038e-17	
     8402.00000	      6.06680e-17	
     8403.90000	      6.47496e-17	
     8405.80000	      6.30409e-17	
     8407.70000	      6.01952e-17	
     8409.60000	      6.03150e-17	
     8411.50000	      6.09727e-17	
     8413.40000	      6.16871e-17	
     8415.30000	      6.20707e-17	
     8417.20000	      5.89825e-17	
     8419.10000	      6.05953e-17	
     8421.00000	      5.80950e-17	
     8422.90000	      5.72171e-17	
     8424.80000	      5.94100e-17	
     8426.70000	      5.74977e-17	
     8428.60000	      5.24508e-17	
     8430.50000	      4.44730e-17	
     8432.40000	      4.29591e-17	
     8434.30000	      5.01649e-17	
     8436.20000	      5.64588e-17	
     8438.10000	      5.63223e-17	
     8440.00000	      5.23090e-17	
     8441.90000	      5.47843e-17	
     8443.80000	      5.49663e-17	
     8445.70000	      5.16282e-17	
     8447.60000	      4.66899e-17	
     8449.50000	      4.50534e-17	
     8451.40000	      4.62378e-17	
     8453.30000	      4.66221e-17	
     8455.20000	      4.68331e-17	
     8457.10000	      5.15080e-17	
     8459.00000	      5.22696e-17	
     8460.90000	      5.04904e-17	
     8462.80000	      4.66186e-17	
     8464.70000	      4.48130e-17	
     8466.60000	      4.60349e-17	
     8468.50000	      4.63594e-17	
     8470.40000	      5.08758e-17	
     8472.30000	      5.28172e-17	
     8474.20000	      5.15946e-17	
     8476.10000	      5.03275e-17	
     8478.00000	      4.88484e-17	
     8479.90000	      5.27395e-17	
     8481.80000	      5.32958e-17	
     8483.70000	      5.20437e-17	
     8485.60000	      5.38408e-17	
     8487.50000	      5.20839e-17	
     8489.40000	      5.09611e-17	
     8491.30000	      4.80254e-17	
     8493.20000	      4.78941e-17	
     8495.10000	      4.84995e-17	
     8497.00000	      4.83732e-17	
     8498.90000	      5.10230e-17	
     8500.80000	      5.04785e-17	
     8502.70000	      4.89532e-17	
     8504.60000	      4.98366e-17	
     8506.50000	      5.11143e-17	
     8508.40000	      4.91728e-17	
     8510.30000	      4.89264e-17	
     8512.20000	      4.71403e-17	
     8514.10000	      4.81538e-17	
     8516.00000	      5.22803e-17	
     8517.90000	      5.29546e-17	
     8519.80000	      5.19808e-17	
     8521.70000	      5.40636e-17	
     8523.60000	      5.55493e-17	
     8525.50000	      4.93859e-17	
     8527.40000	      4.93965e-17	
     8529.30000	      5.32039e-17	
     8531.20000	      5.23255e-17	
     8533.10000	      5.37222e-17	
     8535.00000	      5.55937e-17	
     8536.90000	      5.01900e-17	
     8538.80000	      4.93818e-17	
     8540.70000	      5.27103e-17	
     8542.60000	      5.34229e-17	
     8544.50000	      5.35267e-17	
     8546.40000	      5.49425e-17	
     8548.30000	      5.53812e-17	
     8550.20000	      5.79118e-17	
     8552.10000	      5.64539e-17	
     8554.00000	      5.73104e-17	
     8555.90000	      5.83400e-17	
     8557.80000	      5.47345e-17	
     8559.70000	      5.63381e-17	
     8561.60000	      5.92228e-17	
     8563.50000	      5.96829e-17	
     8565.40000	      5.76944e-17	
     8567.30000	      5.47924e-17	
     8569.20000	      5.54371e-17	
     8571.10000	      5.47472e-17	
     8573.00000	      5.79162e-17	
     8574.90000	      5.64640e-17	
     8576.80000	      5.85440e-17	
     8578.70000	      5.58163e-17	
     8580.60000	      5.39516e-17	
     8582.50000	      5.73117e-17	
     8584.40000	      5.68203e-17	
     8586.30000	      5.94639e-17	
     8588.20000	      5.94122e-17	
     8590.10000	      6.12202e-17	
     8592.00000	      6.10607e-17	
     8593.90000	      6.01099e-17	
     8595.80000	      5.97828e-17	
     8597.70000	      5.93924e-17	
     8599.60000	      5.98598e-17	
     8601.50000	      6.09650e-17	
     8603.40000	      6.01928e-17	
     8605.30000	      5.86290e-17	
     8607.20000	      5.92319e-17	
     8609.10000	      5.74205e-17	
     8611.00000	      5.74286e-17	
     8612.90000	      5.75206e-17	
     8614.80000	      5.89656e-17	
     8616.70000	      5.57103e-17	
     8618.60000	      5.39427e-17	
     8620.50000	      5.58862e-17	
     8622.40000	      6.40468e-17	
     8624.30000	      5.92516e-17	
     8626.20000	      5.78606e-17	
     8628.10000	      5.90560e-17	
     8630.00000	      6.23089e-17	
     8631.90000	      5.89968e-17	
     8633.80000	      5.73332e-17	
     8635.70000	      5.90995e-17	
     8637.60000	      6.20445e-17	
     8639.50000	      6.34756e-17	
     8641.40000	      6.07284e-17	
     8643.30000	      6.17391e-17	
     8645.20000	      6.08190e-17	
     8647.10000	      6.15683e-17	
     8649.00000	      6.08703e-17	
     8650.90000	      6.21126e-17	
     8652.80000	      6.09288e-17	
     8654.70000	      5.82266e-17	
     8656.60000	      5.62683e-17	
     8658.50000	      5.31442e-17	
     8660.40000	      5.69575e-17	
     8662.30000	      5.90538e-17	
     8664.20000	      5.64571e-17	
     8666.10000	      5.86370e-17	
     8668.00000	      6.37176e-17	
     8669.90000	      6.02910e-17	
     8671.80000	      6.22251e-17	
     8673.70000	      6.56114e-17	
     8675.60000	      6.51023e-17	
     8677.50000	      6.10600e-17	
     8679.40000	      5.92078e-17	
     8681.30000	      6.34396e-17	
     8683.20000	      5.97395e-17	
     8685.10000	      5.88660e-17	
     8687.00000	      5.87608e-17	
     8688.90000	      5.80941e-17	
     8690.80000	      5.73878e-17	
     8692.70000	      5.64982e-17	
     8694.60000	      5.99308e-17	
     8696.50000	      5.94130e-17	
     8698.40000	      5.85380e-17	
     8700.30000	      6.22743e-17	
     8702.20000	      6.27781e-17	
     8704.10000	      6.14814e-17	
     8706.00000	      6.15461e-17	
     8707.90000	      6.18788e-17	
     8709.80000	      5.92286e-17	
     8711.70000	      5.75678e-17	
     8713.60000	      6.14032e-17	
     8715.50000	      6.16434e-17	
     8717.40000	      6.05738e-17	
     8719.30000	      6.04869e-17	
     8721.20000	      6.18973e-17	
     8723.10000	      6.59229e-17	
     8725.00000	      6.70507e-17	
     8726.90000	      6.28760e-17	
     8728.80000	      6.05601e-17	
     8730.70000	      5.87408e-17	
     8732.60000	      5.91012e-17	
     8734.50000	      6.46920e-17	
     8736.40000	      6.44163e-17	
     8738.30000	      6.41921e-17	
     8740.20000	      6.64841e-17	
     8742.10000	      6.40909e-17	
     8744.00000	      5.99695e-17	
     8745.90000	      6.29434e-17	
     8747.80000	      6.39695e-17	
     8749.70000	      6.16671e-17	
     8751.60000	      6.20776e-17	
     8753.50000	      6.58453e-17	
     8755.40000	      6.22816e-17	
     8757.30000	      6.09926e-17	
     8759.20000	      6.30721e-17	
     8761.10000	      6.32569e-17	
     8763.00000	      5.85689e-17	
     8764.90000	      6.34117e-17	
     8766.80000	      6.73340e-17	
     8768.70000	      6.55814e-17	
     8770.60000	      6.55352e-17	
     8772.50000	      6.54466e-17	
     8774.40000	      6.26569e-17	
     8776.30000	      6.35138e-17	
     8778.20000	      6.91178e-17	
     8780.10000	      6.59289e-17	
     8782.00000	      6.71195e-17	
     8783.90000	      6.85231e-17	
     8785.80000	      6.81543e-17	
     8787.70000	      7.26666e-17	
     8789.60000	      7.30802e-17	
     8791.50000	      6.88756e-17	
     8793.40000	      7.00296e-17	
     8795.30000	      7.00385e-17	
     8797.20000	      6.50275e-17	
     8799.10000	      6.48345e-17	
     8801.00000	      6.44649e-17	
     8802.90000	      6.41158e-17	
     8804.80000	      6.58627e-17	
     8806.70000	      6.84880e-17	
     8808.60000	      7.10420e-17	
     8810.50000	      6.94863e-17	
     8812.40000	      7.04547e-17	
     8814.30000	      7.41214e-17	
     8816.20000	      7.09134e-17	
     8818.10000	      6.92260e-17	
     8820.00000	      6.51223e-17	
     8821.90000	      6.11245e-17	
     8823.80000	      6.04379e-17	
     8825.70000	      6.44503e-17	
     8827.60000	      6.77787e-17	
     8829.50000	      7.18115e-17	
     8831.40000	      7.74409e-17	
     8833.30000	      7.43308e-17	
     8835.20000	      6.43624e-17	
     8837.10000	      6.90817e-17	
     8839.00000	      7.23367e-17	
     8840.90000	      7.11481e-17	
     8842.80000	      6.78729e-17	
     8844.70000	      6.85891e-17	
     8846.60000	      7.14784e-17	
     8848.50000	      7.06645e-17	
     8850.40000	      7.38193e-17	
     8852.30000	      7.27475e-17	
     8854.20000	      6.65534e-17	
     8856.10000	      6.20550e-17	
     8858.00000	      6.58096e-17	
     8859.90000	      6.33121e-17	
     8861.80000	      6.28123e-17	
     8863.70000	      6.34916e-17	
     8865.60000	      5.80058e-17	
     8867.50000	      5.77626e-17	
     8869.40000	      6.04304e-17	
     8871.30000	      5.96091e-17	
     8873.20000	      6.12132e-17	
     8875.10000	      6.32606e-17	
     8877.00000	      6.56611e-17	
     8878.90000	      6.31387e-17	
     8880.80000	      5.99428e-17	
     8882.70000	      6.04341e-17	
     8884.60000	      6.33460e-17	
     8886.50000	      6.70580e-17	
     8888.40000	      5.85764e-17	
     8890.30000	      5.79805e-17	
     8892.20000	      5.88959e-17	
     8894.10000	      6.12775e-17	
     8896.00000	      6.33920e-17	
     8897.90000	      6.49727e-17	
     8899.80000	      6.34378e-17	
     8901.70000	      6.50522e-17	
     8903.60000	      7.03668e-17	
     8905.50000	      7.17486e-17	
     8907.40000	      6.40361e-17	
     8909.30000	      6.80341e-17	
     8911.20000	      6.52566e-17	
     8913.10000	      6.03479e-17	
     8915.00000	      6.93833e-17	
     8916.90000	      6.59335e-17	
     8918.80000	      6.27773e-17	
     8920.70000	      6.75654e-17	
     8922.60000	      6.65233e-17	
     8924.50000	      6.75142e-17	
     8926.40000	      6.91735e-17	
     8928.30000	      6.82202e-17	
     8930.20000	      6.83134e-17	
     8932.10000	      6.89921e-17	
     8934.00000	      6.53212e-17	
     8935.90000	      6.23372e-17	
     8937.80000	      6.00996e-17	
     8939.70000	      6.30999e-17	
     8941.60000	      6.56710e-17	
     8943.50000	      6.54797e-17	
     8945.40000	      6.50965e-17	
     8947.30000	      6.45381e-17	
     8949.20000	      6.25745e-17	
     8951.10000	      6.50545e-17	
     8953.00000	      6.55949e-17	
     8954.90000	      6.22194e-17	
     8956.80000	      5.94233e-17	
     8958.70000	      5.68606e-17	
     8960.60000	      6.12392e-17	
     8962.50000	      6.28594e-17	
     8964.40000	      6.50360e-17	
     8966.30000	      6.57677e-17	
     8968.20000	      6.40086e-17	
     8970.10000	      6.54268e-17	
     8972.00000	      6.53740e-17	
     8973.90000	      6.62557e-17	
     8975.80000	      6.63388e-17	
     8977.70000	      6.75096e-17	
     8979.60000	      7.02046e-17	
     8981.50000	      6.83476e-17	
     8983.40000	      6.53485e-17	
     8985.30000	      5.82169e-17	
     8987.20000	      5.50290e-17	
     8989.10000	      5.96362e-17	
     8991.00000	      6.58989e-17	
     8992.90000	      6.93558e-17	
     8994.80000	      6.35046e-17	
     8996.70000	      6.25257e-17	
     8998.60000	      6.77718e-17	
     9000.50000	      6.61278e-17	
     9002.40000	      6.50659e-17	
     9004.30000	      6.53450e-17	
     9006.20000	      6.83791e-17	
     9008.10000	      6.89237e-17	
     9010.00000	      6.76204e-17	
     9011.90000	      6.86993e-17	
     9013.80000	      1.12622e-16	
     9015.70000	      8.69846e-17	
     9017.60000	      6.37761e-17	
     9019.50000	      6.57649e-17	
     9021.40000	      6.30993e-17	
     9023.30000	      6.23568e-17	
     9025.20000	      6.88084e-17	
     9027.10000	      6.96683e-17	
     9029.00000	      6.51695e-17	
     9030.90000	      7.17775e-17	
     9032.80000	      7.33957e-17	
     9034.70000	      7.19193e-17	
     9036.60000	      7.14914e-17	
     9038.50000	      6.49562e-17	
     9040.40000	      6.66678e-17	
     9042.30000	      7.45938e-17	
     9044.20000	      7.43364e-17	
     9046.10000	      7.22591e-17	
     9048.00000	      7.12642e-17	
     9049.90000	      7.21047e-17	
     9051.80000	      6.73587e-17	
     9053.70000	      6.55831e-17	
     9055.60000	      6.86983e-17	
     9057.50000	      6.99369e-17	
     9059.40000	      7.02366e-17	
     9061.30000	      6.81424e-17	
     9063.20000	      6.96827e-17	
     9065.10000	      6.33305e-17	
     9067.00000	      6.47757e-17	
     9068.90000	      6.48004e-17	
     9070.80000	      6.59049e-17	
     9072.70000	      6.78252e-17	
     9074.60000	      7.01938e-17	
     9076.50000	      7.20889e-17	
     9078.40000	      7.03581e-17	
     9080.30000	      7.07568e-17	
     9082.20000	      6.37166e-17	
     9084.10000	      6.59082e-17	
     9086.00000	      6.77572e-17	
     9087.90000	      6.79391e-17	
     9089.80000	      6.66172e-17	
     9091.70000	      7.11875e-17	
     9093.60000	      7.25863e-17	
     9095.50000	      7.21651e-17	
     9097.40000	      6.89516e-17	
     9099.30000	      7.05651e-17	
     9101.20000	      6.66661e-17	
     9103.10000	      6.75192e-17	
     9105.00000	      6.99460e-17	
     9106.90000	      7.32147e-17	
     9108.80000	      7.58486e-17	
     9110.70000	      7.59820e-17	
     9112.60000	      7.30037e-17	
     9114.50000	      6.54268e-17	
     9116.40000	      6.83701e-17	
     9118.30000	      7.11936e-17	
     9120.20000	      7.07565e-17	
     9122.10000	      7.37305e-17	
     9124.00000	      7.42239e-17	
     9125.90000	      7.16692e-17	
     9127.80000	      6.84493e-17	
     9129.70000	      7.07663e-17	
     9131.60000	      6.95589e-17	
     9133.50000	      6.79117e-17	
     9135.40000	      6.65710e-17	
     9137.30000	      6.86127e-17	
     9139.20000	      7.35727e-17	
     9141.10000	      7.57025e-17	
     9143.00000	      7.50390e-17	
     9144.90000	      7.06268e-17	
     9146.80000	      6.70376e-17	
     9148.70000	      7.04698e-17	
     9150.60000	      6.87180e-17	
     9152.50000	      6.55661e-17	
     9154.40000	      7.10980e-17	
     9156.30000	      7.50247e-17	
     9158.20000	      7.45533e-17	
     9160.10000	      7.81021e-17	
     9162.00000	      7.47703e-17	
     9163.90000	      7.22968e-17	
     9165.80000	      7.68679e-17	
     9167.70000	      7.33684e-17	
     9169.60000	      6.85941e-17	
     9171.50000	      6.67640e-17	
     9173.40000	      6.56861e-17	
     9175.30000	      6.99427e-17	
     9177.20000	      7.55448e-17	
     9179.10000	      7.30255e-17	
     9181.00000	      7.01998e-17	
     9182.90000	      7.31149e-17	
     9184.80000	      7.80634e-17	
     9186.70000	      7.68364e-17	
     9188.60000	      7.33063e-17	
     9190.50000	      7.26731e-17	
     9192.40000	      7.11021e-17	
     9194.30000	      7.58223e-17	
     9196.20000	      9.62563e-17	
     9198.10000	      9.22100e-17	
     9200.00000	      7.95996e-17	
     9201.90000	      7.67211e-17	
     9203.80000	      7.61611e-17	
     9205.70000	      7.47751e-17	
     9207.60000	      7.51444e-17	
     9209.50000	      7.39999e-17	
     9211.40000	      7.34395e-17	
     9213.30000	      7.54219e-17	
     9215.20000	      7.54893e-17	
     9217.10000	      7.43503e-17	
     9219.00000	      7.66126e-17	
     9220.90000	      7.67773e-17	
     9222.80000	      7.29772e-17	
     9224.70000	      7.51470e-17	
     9226.60000	      7.26299e-17	
     9228.50000	      6.94717e-17	
     9230.40000	      7.07295e-17	
     9232.30000	      7.18629e-17	
     9234.20000	      7.13443e-17	
     9236.10000	      7.19888e-17	
     9238.00000	      6.80091e-17	
     9239.90000	      7.06561e-17	
     9241.80000	      6.99828e-17	
     9243.70000	      7.30165e-17	
     9245.60000	      6.90324e-17	
     9247.50000	      7.13546e-17	
     9249.40000	      7.13948e-17	
     9251.30000	      7.12121e-17	
     9253.20000	      7.36275e-17	
     9255.10000	      7.01172e-17	
     9257.00000	      7.05758e-17	
     9258.90000	      6.92964e-17	
     9260.80000	      7.52703e-17	
     9262.70000	      7.70805e-17	
     9264.60000	      7.70765e-17	
     9266.50000	      7.51283e-17	
     9268.40000	      7.59888e-17	
     9270.30000	      7.44088e-17	
     9272.20000	      7.17471e-17	
     9274.10000	      7.05214e-17	
     9276.00000	      6.75951e-17	
     9277.90000	      6.92506e-17	
     9279.80000	      7.09049e-17	
     9281.70000	      6.54690e-17	
     9283.60000	      6.30469e-17	
     9285.50000	      6.93382e-17	
     9287.40000	      6.33382e-17	
     9289.30000	      6.51422e-17	
     9291.20000	      6.67161e-17	
     9293.10000	      6.70708e-17	
     9295.00000	      6.76355e-17	
     9296.90000	      6.35072e-17	
     9298.80000	      6.36499e-17	
     9300.70000	      6.39402e-17	
     9302.60000	      6.48021e-17	
     9304.50000	      5.30375e-17	
     9306.40000	      5.54641e-17	
     9308.30000	      5.96328e-17	
     9310.20000	      5.11422e-17	
     9312.10000	      4.89806e-17	
     9314.00000	      4.72186e-17	
     9315.90000	      5.77019e-17	
     9317.80000	      6.01213e-17	
     9319.70000	      4.84185e-17	
     9321.60000	      4.66052e-17	
     9323.50000	      5.60039e-17	
     9325.40000	      6.22036e-17	
     9327.30000	      5.78432e-17	
     9329.20000	      5.29606e-17	
     9331.10000	      4.98979e-17	
     9333.00000	      4.55875e-17	
     9334.90000	      5.10930e-17	
     9336.80000	      5.45022e-17	
     9338.70000	      4.69605e-17	
     9340.60000	      4.45162e-17	
     9342.50000	      4.87180e-17	
     9344.40000	      5.85936e-17	
     9346.30000	      6.38530e-17	
     9348.20000	      5.62605e-17	
     9350.10000	      4.70659e-17	
     9352.00000	      4.01017e-17	
     9353.90000	      3.90499e-17	
     9355.80000	      5.03504e-17	
     9357.70000	      5.87195e-17	
     9359.60000	      5.77424e-17	
     9361.50000	      5.93961e-17	
     9363.40000	      5.67344e-17	
     9365.30000	      4.72171e-17	
     9367.20000	      4.68138e-17	
     9369.10000	      5.22979e-17	
     9371.00000	      4.97196e-17	
     9372.90000	      4.92212e-17	
     9374.80000	      4.23010e-17	
     9376.70000	      4.89666e-17	
     9378.60000	      6.02594e-17	
     9380.50000	      5.82466e-17	
     9382.40000	      5.41653e-17	
     9384.30000	      5.98334e-17	
     9386.20000	      6.70946e-17	
     9388.10000	      7.03896e-17	
     9390.00000	      7.40786e-17	
     9391.90000	      7.02234e-17	
     9393.80000	      6.82906e-17	
     9395.70000	      6.08992e-17	
     9397.60000	      6.13732e-17	
     9399.50000	      6.84394e-17	
     9401.40000	      6.36534e-17	
     9403.30000	      5.83601e-17	
     9405.20000	      6.31492e-17	
     9407.10000	      6.05707e-17	
     9409.00000	      6.20729e-17	
     9410.90000	      6.42049e-17	
     9412.80000	      6.63565e-17	
     9414.70000	      6.72415e-17	
     9416.60000	      6.76226e-17	
     9418.50000	      6.50003e-17	
     9420.40000	      6.37358e-17	
     9422.30000	      5.22323e-17	
     9424.20000	      5.05176e-17	
     9426.10000	      5.26286e-17	
     9428.00000	      5.75493e-17	
     9429.90000	      6.91374e-17	
     9431.80000	      2.80895e-17	
     9433.70000	      5.04005e-17	
     9435.60000	      5.13663e-17	
     9437.50000	      3.52204e-17	
     9439.40000	      4.32568e-17	
     9441.30000	      4.59347e-17	
     9443.20000	      5.99588e-17	
     9445.10000	      6.92243e-17	
     9447.00000	      6.98444e-17	
     9448.90000	      6.68728e-17	
     9450.80000	      6.19262e-17	
     9452.70000	      6.06921e-17	
     9454.60000	      5.11555e-17	
     9456.50000	      4.89831e-17	
     9458.40000	      5.48738e-17	
     9460.30000	      6.09179e-17	
     9462.20000	      6.28066e-17	
     9464.10000	      5.88038e-17	
     9466.00000	      5.21575e-17	
     9467.90000	      6.21196e-17	
     9469.80000	      6.09056e-17	
     9471.70000	      5.74420e-17	
     9473.60000	      6.63484e-17	
     9475.50000	      5.61147e-17	
     9477.40000	      4.42858e-17	
     9479.30000	      4.96226e-17	
     9481.20000	      6.22529e-17	
     9483.10000	      6.70138e-17	
     9485.00000	      7.40769e-17	
     9486.90000	      7.47085e-17	
     9488.80000	      6.14563e-17	
     9490.70000	      5.68932e-17	
     9492.60000	      5.76973e-17	
     9494.50000	      5.70755e-17	
     9496.40000	      5.52027e-17	
     9498.30000	      5.86999e-17	
     9500.20000	      6.61294e-17	
     9502.10000	      6.99917e-17	
     9504.00000	      7.38337e-17	
     9505.90000	      7.62616e-17	
     9507.80000	      8.38605e-17	
     9509.70000	      8.25436e-17	
     9511.60000	      7.24660e-17	
     9513.50000	      6.11622e-17	
     9515.40000	      5.20341e-17	
     9517.30000	      5.02803e-17	
     9519.20000	      6.08935e-17	
     9521.10000	      6.38920e-17	
     9523.00000	      7.34969e-17	
     9524.90000	      7.45636e-17	
     9526.80000	      6.93712e-17	
     9528.70000	      7.33751e-17	
     9530.60000	      7.29556e-17	
     9532.50000	      7.01763e-17	
     9534.40000	      7.36787e-17	
     9536.30000	      7.41436e-17	
     9538.20000	      6.74220e-17	
     9540.10000	      6.94478e-17	
     9542.00000	      7.37265e-17	
     9543.90000	      7.31304e-17	
     9545.80000	      6.85668e-17	
     9547.70000	      7.05871e-17	
     9549.60000	      6.65279e-17	
     9551.50000	      6.22341e-17	
     9553.40000	      6.14396e-17	
     9555.30000	      7.31415e-17	
     9557.20000	      8.11164e-17	
     9559.10000	      7.39763e-17	
     9561.00000	      6.24170e-17	
     9562.90000	      6.11509e-17	
     9564.80000	      6.23400e-17	
     9566.70000	      5.87797e-17	
     9568.60000	      6.97898e-17	
     9570.50000	      7.77035e-17	
     9572.40000	      7.38820e-17	
     9574.30000	      7.24008e-17	
     9576.20000	      6.62453e-17	
     9578.10000	      6.21795e-17	
     9580.00000	      7.23351e-17	
     9581.90000	      7.10313e-17	
     9583.80000	      6.70665e-17	
     9585.70000	      6.45414e-17	
     9587.60000	      6.18708e-17	
     9589.50000	      6.16573e-17	
     9591.40000	      6.33981e-17	
     9593.30000	      6.56882e-17	
     9595.20000	      6.69479e-17	
     9597.10000	      7.40519e-17	
     9599.00000	      7.94554e-17	
     9600.90000	      6.16361e-17	
     9602.80000	      6.25020e-17	
     9604.70000	      6.93214e-17	
     9606.60000	      7.63002e-17	
     9608.50000	      7.85464e-17	
     9610.40000	      7.95048e-17	
     9612.30000	      8.41004e-17	
     9614.20000	      7.61149e-17	
     9616.10000	      6.82357e-17	
     9618.00000	      6.31413e-17	
     9619.90000	      6.44171e-17	
     9621.80000	      7.06465e-17	
     9623.70000	      7.75263e-17	
     9625.60000	      8.05281e-17	
     9627.50000	      7.94239e-17	
     9629.40000	      8.21499e-17	
     9631.30000	      7.52868e-17	
     9633.20000	      7.70405e-17	
     9635.10000	      7.68657e-17	
     9637.00000	      7.44442e-17	
     9638.90000	      7.05489e-17	
     9640.80000	      6.89867e-17	
     9642.70000	      7.65968e-17	
     9644.60000	      7.93425e-17	
     9646.50000	      7.64111e-17	
     9648.40000	      7.83420e-17	
     9650.30000	      7.71997e-17	
     9652.20000	      7.88764e-17	
     9654.10000	      8.53672e-17	
     9656.00000	      8.02114e-17	
     9657.90000	      7.49545e-17	
     9659.80000	      7.56628e-17	
     9661.70000	      7.21659e-17	
     9663.60000	      6.73797e-17	
     9665.50000	      7.28332e-17	
     9667.40000	      7.26603e-17	
     9669.30000	      6.36572e-17	
     9671.20000	      7.03516e-17	
     9673.10000	      8.00340e-17	
     9675.00000	      8.08766e-17	
     9676.90000	      7.66160e-17	
     9678.80000	      8.16765e-17	
     9680.70000	      8.31076e-17	
     9682.60000	      7.64722e-17	
     9684.50000	      8.00924e-17	
     9686.40000	      8.28999e-17	
     9688.30000	      8.02885e-17	
     9690.20000	      7.44174e-17	
     9692.10000	      7.37614e-17	
     9694.00000	      8.30255e-17	
     9695.90000	      7.79604e-17	
     9697.80000	      7.63339e-17	
     9699.70000	      7.98057e-17	
     9701.60000	      8.26792e-17	
     9703.50000	      6.98798e-17	
     9705.40000	      6.87905e-17	
     9707.30000	      8.38227e-17	
     9709.20000	      7.73603e-17	
     9711.10000	      7.57505e-17	
     9713.00000	      8.60299e-17	
     9714.90000	      8.50218e-17	
     9716.80000	      8.16531e-17	
     9718.70000	      8.10120e-17	
     9720.60000	      8.81217e-17	
     9722.50000	      8.73043e-17	
     9724.40000	      7.03349e-17	
     9726.30000	      7.69951e-17	
     9728.20000	      8.17778e-17	
     9730.10000	      7.19812e-17	
     9732.00000	      6.72511e-17	
     9733.90000	      7.08860e-17	
     9735.80000	      7.50489e-17	
     9737.70000	      7.23029e-17	
     9739.60000	      7.57104e-17	
     9741.50000	      8.07184e-17	
     9743.40000	      7.14174e-17	
     9745.30000	      7.74625e-17	
     9747.20000	      6.90663e-17	
     9749.10000	      7.00299e-17	
     9751.00000	      7.65829e-17	
     9752.90000	      6.98078e-17	
     9754.80000	      7.23641e-17	
     9756.70000	      7.40485e-17	
     9758.60000	      7.27197e-17	
     9760.50000	      7.82462e-17	
     9762.40000	      7.99620e-17	
     9764.30000	      7.48316e-17	
     9766.20000	      7.63571e-17	
     9768.10000	      7.23870e-17	
     9770.00000	      8.12285e-17	
     9771.90000	      8.28217e-17	
     9773.80000	      7.50621e-17	
     9775.70000	      8.25509e-17	
     9777.60000	      7.33394e-17	
     9779.50000	      7.21747e-17	
     9781.40000	      7.70692e-17	
     9783.30000	      7.88606e-17	
     9785.20000	      8.23149e-17	
     9787.10000	      6.10019e-17	
     9789.00000	      6.24005e-17	
     9790.90000	      5.32310e-17	
     9792.80000	      6.88376e-17	
     9794.70000	      6.26071e-17	
     9796.60000	      7.08406e-17	
     9798.50000	      6.96757e-17	
     9800.40000	      7.04313e-17	
     9802.30000	      7.70308e-17	
     9804.20000	      7.96778e-17	
     9806.10000	      7.68263e-17	
     9808.00000	      7.87729e-17	
     9809.90000	      7.02050e-17	
     9811.80000	      5.46744e-17	
     9813.70000	      2.61668e-17	
     9815.60000	      2.84891e-17	
     9817.50000	      5.56342e-17	
     9819.40000	      7.80755e-17	
     9821.30000	      6.76424e-17	
     9823.20000	      6.23191e-17	
     9825.10000	      6.71801e-17	
     9827.00000	      6.98524e-17	
     9828.90000	      6.74461e-17	
     9830.80000	      6.74139e-17	
     9832.70000	      6.84986e-17	
     9834.60000	      6.76714e-17	
     9836.50000	      5.75520e-17	
     9838.40000	      5.53316e-17	
     9840.30000	      6.34129e-17	
     9842.20000	      6.29906e-17	
     9844.10000	      5.98658e-17	
     9846.00000	      6.84254e-17	
     9847.90000	      6.02617e-17	
     9849.80000	      6.86719e-17	
     9851.70000	      6.69566e-17	
     9853.60000	      7.07998e-17	
     9855.50000	      6.67536e-17	
     9857.40000	      6.53913e-17	
     9859.30000	      4.05338e-17	
     9861.20000	     -1.63219e-17	
     9863.10000	     -5.36102e-18	
     9865.00000	      7.05467e-17	
     9866.90000	      6.69820e-17	
     9868.80000	      7.04684e-17	
     9870.70000	      6.33269e-17	
     9872.60000	      5.77275e-17	
     9874.50000	      7.13981e-17	
     9876.40000	      6.96268e-17	
     9878.30000	      4.56889e-17	
     9880.20000	      5.67508e-17	
     9882.10000	      5.88447e-17	
     9884.00000	      6.11830e-17	
     9885.90000	      6.48275e-17	
     9887.80000	      5.99805e-17	
     9889.70000	      5.86840e-17	
     9891.60000	      6.38315e-17	
     9893.50000	      6.37034e-17	
     9895.40000	      7.96799e-17	
     9897.30000	      6.83624e-17	
     9899.20000	      6.38173e-17	
     9901.10000	      7.42787e-17	
     9903.00000	      7.12718e-17	
     9904.90000	      6.66473e-17	
     9906.80000	      5.84358e-17	
     9908.70000	      6.28574e-17	
     9910.60000	      6.51945e-17	
     9912.50000	      4.70762e-17	
     9914.40000	      4.23864e-17	
     9916.30000	      7.49955e-17	
     9918.20000	      5.35362e-17	
     9920.10000	      5.64125e-17	
     9922.00000	      6.06104e-17	
     9923.90000	      6.38740e-17	
     9925.80000	      5.28564e-17	
     9927.70000	      6.18606e-17	
     9929.60000	      6.64788e-17	
     9931.50000	      6.30912e-17	
     9933.40000	      7.00727e-17	
     9935.30000	      5.33927e-17	
     9937.20000	      4.79073e-17	
     9939.10000	      5.43209e-17	
#time:0.429250
