# Keck LRIS spectra of late-M, L and T dwarfs
# spty = L0  (Spectral type)
#
#    WAVELENGTH	#           FLUX	
#    (ANGSTROM)	#  (ERG/CM2/S/A)	
###############	################	
     6160.00000	     7.55349e-18	
     6161.90000	     7.47260e-18	
     6163.80000	     7.29684e-18	
     6165.70000	     8.48545e-18	
     6167.60000	     6.82731e-18	
     6169.50000	     7.52876e-18	
     6171.40000	     6.57893e-18	
     6173.30000	     6.30445e-18	
     6175.20000	     9.16814e-18	
     6177.10000	     7.42126e-18	
     6179.00000	     6.65313e-18	
     6180.90000	     4.05094e-18	
     6182.80000	     7.18130e-18	
     6184.70000	     8.27643e-18	
     6186.60000	     6.75156e-18	
     6188.50000	     5.98522e-18	
     6190.40000	     8.55077e-18	
     6192.30000	     8.29775e-18	
     6194.20000	     6.76672e-18	
     6196.10000	     6.74148e-18	
     6198.00000	     7.74093e-18	
     6199.90000	     5.43287e-18	
     6201.80000	     7.32110e-18	
     6203.70000	     6.60407e-18	
     6205.60000	     8.19086e-18	
     6207.50000	     6.59953e-18	
     6209.40000	     6.66997e-18	
     6211.30000	     7.42562e-18	
     6213.20000	     5.44334e-18	
     6215.10000	     4.39493e-18	
     6217.00000	     6.68419e-18	
     6218.90000	     6.40226e-18	
     6220.80000	     6.71468e-18	
     6222.70000	     5.31151e-18	
     6224.60000	     6.42917e-18	
     6226.50000	     6.22367e-18	
     6228.40000	     5.32622e-18	
     6230.30000	     5.28638e-18	
     6232.20000	     5.73766e-18	
     6234.10000	     7.36392e-18	
     6236.00000	     7.42093e-18	
     6237.90000	     7.54058e-18	
     6239.80000	     7.54508e-18	
     6241.70000	     7.37849e-18	
     6243.60000	     6.23379e-18	
     6245.50000	     6.93902e-18	
     6247.40000	     8.08053e-18	
     6249.30000	     7.29415e-18	
     6251.20000	     8.13545e-18	
     6253.10000	     7.42097e-18	
     6255.00000	     7.75591e-18	
     6256.90000	     7.35881e-18	
     6258.80000	     7.10360e-18	
     6260.70000	     5.91807e-18	
     6262.60000	     6.26904e-18	
     6264.50000	     6.03030e-18	
     6266.40000	     6.01423e-18	
     6268.30000	     8.27598e-18	
     6270.20000	     6.74896e-18	
     6272.10000	     7.45113e-18	
     6274.00000	     9.89483e-18	
     6275.90000	     8.54785e-18	
     6277.80000	     7.89458e-18	
     6279.70000	     9.94975e-18	
     6281.60000	     9.10606e-18	
     6283.50000	     9.76662e-18	
     6285.40000	     9.97358e-18	
     6287.30000	     1.03839e-17	
     6289.20000	     8.87924e-18	
     6291.10000	     1.10992e-17	
     6293.00000	     1.04084e-17	
     6294.90000	     1.11891e-17	
     6296.80000	     9.28276e-18	
     6298.70000	     1.11306e-17	
     6300.60000	     1.14974e-17	
     6302.50000	     1.21973e-17	
     6304.40000	     1.29994e-17	
     6306.30000	     1.38321e-17	
     6308.20000	     1.27761e-17	
     6310.10000	     1.21024e-17	
     6312.00000	     1.22004e-17	
     6313.90000	     1.09403e-17	
     6315.80000	     1.13436e-17	
     6317.70000	     1.27768e-17	
     6319.60000	     1.42748e-17	
     6321.50000	     1.19050e-17	
     6323.40000	     1.42956e-17	
     6325.30000	     1.26323e-17	
     6327.20000	     1.37716e-17	
     6329.10000	     1.58957e-17	
     6331.00000	     1.58389e-17	
     6332.90000	     1.52993e-17	
     6334.80000	     1.52763e-17	
     6336.70000	     1.59309e-17	
     6338.60000	     1.55380e-17	
     6340.50000	     1.56335e-17	
     6342.40000	     1.59687e-17	
     6344.30000	     1.63622e-17	
     6346.20000	     1.69037e-17	
     6348.10000	     1.64387e-17	
     6350.00000	     1.70577e-17	
     6351.90000	     1.66187e-17	
     6353.80000	     1.59646e-17	
     6355.70000	     1.67200e-17	
     6357.60000	     1.62395e-17	
     6359.50000	     1.66810e-17	
     6361.40000	     1.66154e-17	
     6363.30000	     1.49746e-17	
     6365.20000	     1.62158e-17	
     6367.10000	     1.55007e-17	
     6369.00000	     1.67671e-17	
     6370.90000	     1.58962e-17	
     6372.80000	     1.46601e-17	
     6374.70000	     1.62803e-17	
     6376.60000	     1.58309e-17	
     6378.50000	     1.62858e-17	
     6380.40000	     1.54621e-17	
     6382.30000	     1.55089e-17	
     6384.20000	     1.66952e-17	
     6386.10000	     1.73600e-17	
     6388.00000	     1.51917e-17	
     6389.90000	     1.47932e-17	
     6391.80000	     1.59294e-17	
     6393.70000	     1.57302e-17	
     6395.60000	     1.64039e-17	
     6397.50000	     1.68143e-17	
     6399.40000	     1.49706e-17	
     6401.30000	     1.64661e-17	
     6403.20000	     1.77281e-17	
     6405.10000	     1.64080e-17	
     6407.00000	     1.62717e-17	
     6408.90000	     1.79258e-17	
     6410.80000	     1.66825e-17	
     6412.70000	     1.69847e-17	
     6414.60000	     1.71449e-17	
     6416.50000	     1.72553e-17	
     6418.40000	     1.75065e-17	
     6420.30000	     1.82921e-17	
     6422.20000	     1.71329e-17	
     6424.10000	     1.57251e-17	
     6426.00000	     1.65662e-17	
     6427.90000	     1.71157e-17	
     6429.80000	     1.54487e-17	
     6431.70000	     1.62142e-17	
     6433.60000	     1.58617e-17	
     6435.50000	     1.56557e-17	
     6437.40000	     1.52236e-17	
     6439.30000	     1.55013e-17	
     6441.20000	     1.62525e-17	
     6443.10000	     1.71042e-17	
     6445.00000	     1.73991e-17	
     6446.90000	     1.68838e-17	
     6448.80000	     1.77167e-17	
     6450.70000	     1.82609e-17	
     6452.60000	     1.89894e-17	
     6454.50000	     1.77525e-17	
     6456.40000	     1.67531e-17	
     6458.30000	     1.64053e-17	
     6460.20000	     1.72284e-17	
     6462.10000	     1.66121e-17	
     6464.00000	     1.81225e-17	
     6465.90000	     1.77636e-17	
     6467.80000	     1.65525e-17	
     6469.70000	     1.68381e-17	
     6471.60000	     2.03371e-17	
     6473.50000	     1.76604e-17	
     6475.40000	     1.90386e-17	
     6477.30000	     1.90789e-17	
     6479.20000	     1.82740e-17	
     6481.10000	     1.74491e-17	
     6483.00000	     1.83495e-17	
     6484.90000	     1.92668e-17	
     6486.80000	     1.86235e-17	
     6488.70000	     1.90335e-17	
     6490.60000	     1.92332e-17	
     6492.50000	     1.93346e-17	
     6494.40000	     1.99360e-17	
     6496.30000	     2.03643e-17	
     6498.20000	     2.03590e-17	
     6500.10000	     1.95128e-17	
     6502.00000	     1.96574e-17	
     6503.90000	     1.95584e-17	
     6505.80000	     2.26406e-17	
     6507.70000	     2.22749e-17	
     6509.60000	     2.15366e-17	
     6511.50000	     2.40267e-17	
     6513.40000	     2.35953e-17	
     6515.30000	     2.31036e-17	
     6517.20000	     2.47397e-17	
     6519.10000	     2.69489e-17	
     6521.00000	     2.74967e-17	
     6522.90000	     2.64418e-17	
     6524.80000	     2.62032e-17	
     6526.70000	     2.73419e-17	
     6528.60000	     2.76061e-17	
     6530.50000	     2.92518e-17	
     6532.40000	     3.01561e-17	
     6534.30000	     2.94117e-17	
     6536.20000	     2.87314e-17	
     6538.10000	     3.01823e-17	
     6540.00000	     2.98774e-17	
     6541.90000	     3.02036e-17	
     6543.80000	     3.11767e-17	
     6545.70000	     2.79375e-17	
     6547.60000	     2.81231e-17	
     6549.50000	     2.89947e-17	
     6551.40000	     2.89658e-17	
     6553.30000	     3.09022e-17	
     6555.20000	     2.83455e-17	
     6557.10000	     3.00310e-17	
     6559.00000	     3.01981e-17	
     6560.90000	     3.12762e-17	
     6562.80000	     3.19029e-17	
     6564.70000	     2.99514e-17	
     6566.60000	     2.89315e-17	
     6568.50000	     2.95061e-17	
     6570.40000	     2.85904e-17	
     6572.30000	     2.85584e-17	
     6574.20000	     2.69589e-17	
     6576.10000	     2.55795e-17	
     6578.00000	     2.70714e-17	
     6579.90000	     2.54934e-17	
     6581.80000	     2.49499e-17	
     6583.70000	     2.42202e-17	
     6585.60000	     2.51629e-17	
     6587.50000	     2.42640e-17	
     6589.40000	     2.53273e-17	
     6591.30000	     2.52431e-17	
     6593.20000	     2.63544e-17	
     6595.10000	     2.73899e-17	
     6597.00000	     2.65914e-17	
     6598.90000	     2.58523e-17	
     6600.80000	     2.80232e-17	
     6602.70000	     2.85579e-17	
     6604.60000	     2.62588e-17	
     6606.50000	     2.77643e-17	
     6608.40000	     2.71331e-17	
     6610.30000	     2.83535e-17	
     6612.20000	     2.79749e-17	
     6614.10000	     2.80612e-17	
     6616.00000	     2.86011e-17	
     6617.90000	     2.88047e-17	
     6619.80000	     2.84152e-17	
     6621.70000	     2.87391e-17	
     6623.60000	     2.82495e-17	
     6625.50000	     2.75225e-17	
     6627.40000	     2.78660e-17	
     6629.30000	     2.85007e-17	
     6631.20000	     2.89327e-17	
     6633.10000	     2.89280e-17	
     6635.00000	     2.90356e-17	
     6636.90000	     2.91845e-17	
     6638.80000	     2.78697e-17	
     6640.70000	     2.75575e-17	
     6642.60000	     2.79810e-17	
     6644.50000	     2.89691e-17	
     6646.40000	     2.89906e-17	
     6648.30000	     2.91415e-17	
     6650.20000	     3.01638e-17	
     6652.10000	     2.71031e-17	
     6654.00000	     2.77184e-17	
     6655.90000	     2.83578e-17	
     6657.80000	     2.84600e-17	
     6659.70000	     2.93629e-17	
     6661.60000	     3.01040e-17	
     6663.50000	     3.04599e-17	
     6665.40000	     2.85801e-17	
     6667.30000	     2.89836e-17	
     6669.20000	     3.04448e-17	
     6671.10000	     2.94831e-17	
     6673.00000	     3.04309e-17	
     6674.90000	     3.01745e-17	
     6676.80000	     2.85306e-17	
     6678.70000	     3.02639e-17	
     6680.60000	     2.96664e-17	
     6682.50000	     2.86148e-17	
     6684.40000	     2.93973e-17	
     6686.30000	     2.77749e-17	
     6688.20000	     2.87982e-17	
     6690.10000	     3.00455e-17	
     6692.00000	     3.06600e-17	
     6693.90000	     3.03314e-17	
     6695.80000	     2.98201e-17	
     6697.70000	     2.93621e-17	
     6699.60000	     2.87132e-17	
     6701.50000	     2.88788e-17	
     6703.40000	     2.97646e-17	
     6705.30000	     3.06550e-17	
     6707.20000	     3.03192e-17	
     6709.10000	     3.46806e-17	
     6711.00000	     3.33206e-17	
     6712.90000	     3.14636e-17	
     6714.80000	     3.09091e-17	
     6716.70000	     3.02709e-17	
     6718.60000	     2.78276e-17	
     6720.50000	     2.72014e-17	
     6722.40000	     2.93783e-17	
     6724.30000	     3.12053e-17	
     6726.20000	     3.00679e-17	
     6728.10000	     3.07474e-17	
     6730.00000	     2.94560e-17	
     6731.90000	     2.98735e-17	
     6733.80000	     3.10040e-17	
     6735.70000	     3.11706e-17	
     6737.60000	     3.28318e-17	
     6739.50000	     3.22769e-17	
     6741.40000	     3.32773e-17	
     6743.30000	     3.31495e-17	
     6745.20000	     3.37161e-17	
     6747.10000	     3.21337e-17	
     6749.00000	     3.24333e-17	
     6750.90000	     3.22385e-17	
     6752.80000	     3.17044e-17	
     6754.70000	     3.18689e-17	
     6756.60000	     3.21661e-17	
     6758.50000	     3.02552e-17	
     6760.40000	     3.18738e-17	
     6762.30000	     3.31049e-17	
     6764.20000	     3.27018e-17	
     6766.10000	     3.46952e-17	
     6768.00000	     3.46077e-17	
     6769.90000	     3.49721e-17	
     6771.80000	     3.53827e-17	
     6773.70000	     3.74233e-17	
     6775.60000	     3.61730e-17	
     6777.50000	     3.60901e-17	
     6779.40000	     3.57567e-17	
     6781.30000	     3.48453e-17	
     6783.20000	     3.43101e-17	
     6785.10000	     3.24145e-17	
     6787.00000	     3.20945e-17	
     6788.90000	     3.20553e-17	
     6790.80000	     3.25077e-17	
     6792.70000	     3.25000e-17	
     6794.60000	     3.36225e-17	
     6796.50000	     3.36332e-17	
     6798.40000	     3.38579e-17	
     6800.30000	     3.53167e-17	
     6802.20000	     3.51070e-17	
     6804.10000	     3.41383e-17	
     6806.00000	     3.44977e-17	
     6807.90000	     3.55917e-17	
     6809.80000	     3.46351e-17	
     6811.70000	     3.55259e-17	
     6813.60000	     3.33204e-17	
     6815.50000	     3.41887e-17	
     6817.40000	     3.44804e-17	
     6819.30000	     3.45747e-17	
     6821.20000	     3.45447e-17	
     6823.10000	     3.54308e-17	
     6825.00000	     3.43604e-17	
     6826.90000	     3.47516e-17	
     6828.80000	     3.48724e-17	
     6830.70000	     3.46000e-17	
     6832.60000	     3.56785e-17	
     6834.50000	     3.41985e-17	
     6836.40000	     3.44482e-17	
     6838.30000	     3.49452e-17	
     6840.20000	     3.35242e-17	
     6842.10000	     3.49400e-17	
     6844.00000	     3.63838e-17	
     6845.90000	     3.59434e-17	
     6847.80000	     3.66954e-17	
     6849.70000	     3.26355e-17	
     6851.60000	     3.22613e-17	
     6853.50000	     3.35518e-17	
     6855.40000	     3.51498e-17	
     6857.30000	     3.65007e-17	
     6859.20000	     3.43500e-17	
     6861.10000	     3.19442e-17	
     6863.00000	     3.25849e-17	
     6864.90000	     3.38310e-17	
     6866.80000	     3.29470e-17	
     6868.70000	     3.01249e-17	
     6870.60000	     2.64400e-17	
     6872.50000	     2.62011e-17	
     6874.40000	     2.80222e-17	
     6876.30000	     2.88904e-17	
     6878.20000	     2.98307e-17	
     6880.10000	     3.24431e-17	
     6882.00000	     3.35703e-17	
     6883.90000	     3.39374e-17	
     6885.80000	     3.23243e-17	
     6887.70000	     3.21029e-17	
     6889.60000	     3.26469e-17	
     6891.50000	     3.04383e-17	
     6893.40000	     3.04594e-17	
     6895.30000	     3.30896e-17	
     6897.20000	     3.21334e-17	
     6899.10000	     3.10797e-17	
     6901.00000	     3.16361e-17	
     6902.90000	     3.30037e-17	
     6904.80000	     3.29633e-17	
     6906.70000	     3.27600e-17	
     6908.60000	     3.46410e-17	
     6910.50000	     3.45650e-17	
     6912.40000	     3.73825e-17	
     6914.30000	     3.47765e-17	
     6916.20000	     3.48574e-17	
     6918.10000	     3.43275e-17	
     6920.00000	     3.39221e-17	
     6921.90000	     3.51801e-17	
     6923.80000	     3.68512e-17	
     6925.70000	     4.05281e-17	
     6927.60000	     3.92730e-17	
     6929.50000	     3.81616e-17	
     6931.40000	     3.93417e-17	
     6933.30000	     4.11287e-17	
     6935.20000	     4.10215e-17	
     6937.10000	     4.27904e-17	
     6939.00000	     4.24698e-17	
     6940.90000	     4.14761e-17	
     6942.80000	     4.17247e-17	
     6944.70000	     4.49552e-17	
     6946.60000	     4.63625e-17	
     6948.50000	     4.74482e-17	
     6950.40000	     4.76933e-17	
     6952.30000	     4.62424e-17	
     6954.20000	     4.51878e-17	
     6956.10000	     4.42832e-17	
     6958.00000	     4.31388e-17	
     6959.90000	     4.41100e-17	
     6961.80000	     4.49847e-17	
     6963.70000	     4.51775e-17	
     6965.60000	     4.55239e-17	
     6967.50000	     4.81662e-17	
     6969.40000	     4.84405e-17	
     6971.30000	     4.63581e-17	
     6973.20000	     4.42967e-17	
     6975.10000	     4.53569e-17	
     6977.00000	     4.76671e-17	
     6978.90000	     5.10460e-17	
     6980.80000	     4.88026e-17	
     6982.70000	     4.77171e-17	
     6984.60000	     4.82868e-17	
     6986.50000	     5.03720e-17	
     6988.40000	     4.86888e-17	
     6990.30000	     4.84132e-17	
     6992.20000	     4.77683e-17	
     6994.10000	     4.80836e-17	
     6996.00000	     4.76328e-17	
     6997.90000	     5.12017e-17	
     6999.80000	     4.91488e-17	
     7001.70000	     4.89200e-17	
     7003.60000	     5.01032e-17	
     7005.50000	     5.04758e-17	
     7007.40000	     5.15135e-17	
     7009.30000	     5.26662e-17	
     7011.20000	     5.10519e-17	
     7013.10000	     5.23539e-17	
     7015.00000	     5.24324e-17	
     7016.90000	     5.37092e-17	
     7018.80000	     5.44967e-17	
     7020.70000	     5.50279e-17	
     7022.60000	     5.40766e-17	
     7024.50000	     5.56089e-17	
     7026.40000	     5.59591e-17	
     7028.30000	     5.79995e-17	
     7030.20000	     6.18918e-17	
     7032.10000	     6.14654e-17	
     7034.00000	     6.12510e-17	
     7035.90000	     6.13821e-17	
     7037.80000	     6.35452e-17	
     7039.70000	     6.55806e-17	
     7041.60000	     6.38173e-17	
     7043.50000	     6.43516e-17	
     7045.40000	     6.54938e-17	
     7047.30000	     6.57024e-17	
     7049.20000	     6.73822e-17	
     7051.10000	     6.67721e-17	
     7053.00000	     6.22723e-17	
     7054.90000	     5.69311e-17	
     7056.80000	     4.87646e-17	
     7058.70000	     4.40458e-17	
     7060.60000	     4.40489e-17	
     7062.50000	     4.37808e-17	
     7064.40000	     4.43578e-17	
     7066.30000	     4.54171e-17	
     7068.20000	     4.71044e-17	
     7070.10000	     4.70795e-17	
     7072.00000	     4.54268e-17	
     7073.90000	     4.86734e-17	
     7075.80000	     4.71686e-17	
     7077.70000	     4.87319e-17	
     7079.60000	     4.83795e-17	
     7081.50000	     4.79208e-17	
     7083.40000	     4.95237e-17	
     7085.30000	     5.04924e-17	
     7087.20000	     4.73828e-17	
     7089.10000	     4.53636e-17	
     7091.00000	     4.48469e-17	
     7092.90000	     4.38964e-17	
     7094.80000	     4.35722e-17	
     7096.70000	     4.38822e-17	
     7098.60000	     4.27703e-17	
     7100.50000	     4.46058e-17	
     7102.40000	     4.47296e-17	
     7104.30000	     4.38026e-17	
     7106.20000	     4.42978e-17	
     7108.10000	     4.53543e-17	
     7110.00000	     4.73592e-17	
     7111.90000	     4.76446e-17	
     7113.80000	     4.75514e-17	
     7115.70000	     4.72346e-17	
     7117.60000	     4.73553e-17	
     7119.50000	     4.82439e-17	
     7121.40000	     4.85139e-17	
     7123.30000	     4.95021e-17	
     7125.20000	     4.83865e-17	
     7127.10000	     4.46733e-17	
     7129.00000	     4.35933e-17	
     7130.90000	     4.36287e-17	
     7132.80000	     4.34176e-17	
     7134.70000	     4.41484e-17	
     7136.60000	     4.22780e-17	
     7138.50000	     4.30848e-17	
     7140.40000	     4.60131e-17	
     7142.30000	     4.61976e-17	
     7144.20000	     4.50020e-17	
     7146.10000	     4.74677e-17	
     7148.00000	     4.82699e-17	
     7149.90000	     4.82240e-17	
     7151.80000	     4.81703e-17	
     7153.70000	     4.76946e-17	
     7155.60000	     4.93469e-17	
     7157.50000	     4.96592e-17	
     7159.40000	     4.89096e-17	
     7161.30000	     4.74175e-17	
     7163.20000	     4.78633e-17	
     7165.10000	     4.74253e-17	
     7167.00000	     4.72097e-17	
     7168.90000	     4.72432e-17	
     7170.80000	     4.71389e-17	
     7172.70000	     4.65880e-17	
     7174.60000	     4.82198e-17	
     7176.50000	     4.83050e-17	
     7178.40000	     4.90946e-17	
     7180.30000	     4.89871e-17	
     7182.20000	     4.95075e-17	
     7184.10000	     4.97267e-17	
     7186.00000	     5.05794e-17	
     7187.90000	     4.90976e-17	
     7189.80000	     5.18274e-17	
     7191.70000	     5.25750e-17	
     7193.60000	     5.03606e-17	
     7195.50000	     5.00565e-17	
     7197.40000	     5.11388e-17	
     7199.30000	     4.98858e-17	
     7201.20000	     4.95248e-17	
     7203.10000	     4.96205e-17	
     7205.00000	     4.89990e-17	
     7206.90000	     5.01523e-17	
     7208.80000	     5.03782e-17	
     7210.70000	     5.30450e-17	
     7212.60000	     5.38811e-17	
     7214.50000	     5.60346e-17	
     7216.40000	     5.64221e-17	
     7218.30000	     5.58211e-17	
     7220.20000	     5.61741e-17	
     7222.10000	     5.74936e-17	
     7224.00000	     5.79571e-17	
     7225.90000	     5.85049e-17	
     7227.80000	     5.94319e-17	
     7229.70000	     6.03899e-17	
     7231.60000	     6.00953e-17	
     7233.50000	     5.99883e-17	
     7235.40000	     5.89989e-17	
     7237.30000	     5.77801e-17	
     7239.20000	     5.82930e-17	
     7241.10000	     5.74815e-17	
     7243.00000	     5.95830e-17	
     7244.90000	     6.20817e-17	
     7246.80000	     6.42715e-17	
     7248.70000	     6.71659e-17	
     7250.60000	     6.69165e-17	
     7252.50000	     6.61259e-17	
     7254.40000	     6.76648e-17	
     7256.30000	     6.66987e-17	
     7258.20000	     6.93795e-17	
     7260.10000	     7.04552e-17	
     7262.00000	     7.17999e-17	
     7263.90000	     7.41381e-17	
     7265.80000	     7.39741e-17	
     7267.70000	     7.37743e-17	
     7269.60000	     7.25473e-17	
     7271.50000	     6.92781e-17	
     7273.40000	     7.09368e-17	
     7275.30000	     7.58960e-17	
     7277.20000	     7.41675e-17	
     7279.10000	     7.06857e-17	
     7281.00000	     7.33579e-17	
     7282.90000	     7.93939e-17	
     7284.80000	     7.98967e-17	
     7286.70000	     8.14673e-17	
     7288.60000	     7.97190e-17	
     7290.50000	     7.72942e-17	
     7292.40000	     8.08623e-17	
     7294.30000	     8.27539e-17	
     7296.20000	     8.36998e-17	
     7298.10000	     8.59527e-17	
     7300.00000	     8.70696e-17	
     7301.90000	     8.73410e-17	
     7303.80000	     8.94218e-17	
     7305.70000	     9.12779e-17	
     7307.60000	     9.46700e-17	
     7309.50000	     9.59465e-17	
     7311.40000	     9.31042e-17	
     7313.30000	     9.41592e-17	
     7315.20000	     9.93771e-17	
     7317.10000	     1.02516e-16	
     7319.00000	     1.06063e-16	
     7320.90000	     1.08054e-16	
     7322.80000	     1.08236e-16	
     7324.70000	     1.07296e-16	
     7326.60000	     1.04290e-16	
     7328.50000	     1.05239e-16	
     7330.40000	     1.06067e-16	
     7332.30000	     1.04132e-16	
     7334.20000	     1.02769e-16	
     7336.10000	     1.04157e-16	
     7338.00000	     1.12662e-16	
     7339.90000	     1.15875e-16	
     7341.80000	     1.13708e-16	
     7343.70000	     1.13303e-16	
     7345.60000	     1.06753e-16	
     7347.50000	     1.02781e-16	
     7349.40000	     1.04417e-16	
     7351.30000	     1.04267e-16	
     7353.20000	     1.04790e-16	
     7355.10000	     1.01589e-16	
     7357.00000	     9.97381e-17	
     7358.90000	     1.03346e-16	
     7360.80000	     1.09491e-16	
     7362.70000	     1.09804e-16	
     7364.60000	     1.12907e-16	
     7366.50000	     1.16626e-16	
     7368.40000	     1.17445e-16	
     7370.30000	     1.19465e-16	
     7372.20000	     1.16912e-16	
     7374.10000	     1.13110e-16	
     7376.00000	     1.08431e-16	
     7377.90000	     1.05768e-16	
     7379.80000	     1.08666e-16	
     7381.70000	     1.11829e-16	
     7383.60000	     1.09807e-16	
     7385.50000	     1.10456e-16	
     7387.40000	     1.11170e-16	
     7389.30000	     1.12988e-16	
     7391.20000	     1.15193e-16	
     7393.10000	     1.06998e-16	
     7395.00000	     1.16434e-16	
     7396.90000	     1.15015e-16	
     7398.80000	     1.04486e-16	
     7400.70000	     1.08608e-16	
     7402.60000	     1.08729e-16	
     7404.50000	     1.07782e-16	
     7406.40000	     1.02111e-16	
     7408.30000	     1.01313e-16	
     7410.20000	     1.07187e-16	
     7412.10000	     1.08714e-16	
     7414.00000	     1.08522e-16	
     7415.90000	     1.08582e-16	
     7417.80000	     1.03154e-16	
     7419.70000	     9.64551e-17	
     7421.60000	     9.66115e-17	
     7423.50000	     9.98415e-17	
     7425.40000	     1.03978e-16	
     7427.30000	     1.07156e-16	
     7429.20000	     1.06443e-16	
     7431.10000	     1.04234e-16	
     7433.00000	     1.04762e-16	
     7434.90000	     9.98080e-17	
     7436.80000	     9.89329e-17	
     7438.70000	     9.85147e-17	
     7440.60000	     1.03723e-16	
     7442.50000	     9.92337e-17	
     7444.40000	     9.63933e-17	
     7446.30000	     9.44744e-17	
     7448.20000	     9.73840e-17	
     7450.10000	     9.87643e-17	
     7452.00000	     1.01741e-16	
     7453.90000	     1.00625e-16	
     7455.80000	     9.86039e-17	
     7457.70000	     9.58120e-17	
     7459.60000	     9.67364e-17	
     7461.50000	     1.00543e-16	
     7463.40000	     1.03251e-16	
     7465.30000	     1.05181e-16	
     7467.20000	     1.02546e-16	
     7469.10000	     1.03005e-16	
     7471.00000	     1.02637e-16	
     7472.90000	     1.02439e-16	
     7474.80000	     9.85376e-17	
     7476.70000	     9.85979e-17	
     7478.60000	     1.04066e-16	
     7480.50000	     1.05159e-16	
     7482.40000	     1.06091e-16	
     7484.30000	     1.09598e-16	
     7486.20000	     1.11331e-16	
     7488.10000	     1.11690e-16	
     7490.00000	     1.12933e-16	
     7491.90000	     1.13980e-16	
     7493.80000	     1.11202e-16	
     7495.70000	     1.06978e-16	
     7497.60000	     1.07959e-16	
     7499.50000	     1.12161e-16	
     7501.40000	     1.13811e-16	
     7503.30000	     1.14062e-16	
     7505.20000	     1.12630e-16	
     7507.10000	     1.13078e-16	
     7509.00000	     1.14890e-16	
     7510.90000	     1.16913e-16	
     7512.80000	     1.19373e-16	
     7514.70000	     1.14603e-16	
     7516.60000	     1.16333e-16	
     7518.50000	     1.14975e-16	
     7520.40000	     1.15680e-16	
     7522.30000	     1.16201e-16	
     7524.20000	     1.16277e-16	
     7526.10000	     1.19748e-16	
     7528.00000	     1.18148e-16	
     7529.90000	     1.20545e-16	
     7531.80000	     1.24138e-16	
     7533.70000	     1.22330e-16	
     7535.60000	     1.22422e-16	
     7537.50000	     1.25229e-16	
     7539.40000	     1.29390e-16	
     7541.30000	     1.33077e-16	
     7543.20000	     1.33037e-16	
     7545.10000	     1.32275e-16	
     7547.00000	     1.30465e-16	
     7548.90000	     1.30044e-16	
     7550.80000	     1.28028e-16	
     7552.70000	     1.30804e-16	
     7554.60000	     1.33072e-16	
     7556.50000	     1.32769e-16	
     7558.40000	     1.33644e-16	
     7560.30000	     1.35129e-16	
     7562.20000	     1.35466e-16	
     7564.10000	     1.35576e-16	
     7566.00000	     1.29941e-16	
     7567.90000	     1.27466e-16	
     7569.80000	     1.31339e-16	
     7571.70000	     1.33831e-16	
     7573.60000	     1.35470e-16	
     7575.50000	     1.38050e-16	
     7577.40000	     1.36668e-16	
     7579.30000	     1.34283e-16	
     7581.20000	     1.37242e-16	
     7583.10000	     1.43119e-16	
     7585.00000	     1.38714e-16	
     7586.90000	     1.27482e-16	
     7588.80000	     1.12023e-16	
     7590.70000	     9.67969e-17	
     7592.60000	     8.65187e-17	
     7594.50000	     7.36806e-17	
     7596.40000	     5.92295e-17	
     7598.30000	     4.91890e-17	
     7600.20000	     4.39737e-17	
     7602.10000	     3.72233e-17	
     7604.00000	     3.48541e-17	
     7605.90000	     3.41719e-17	
     7607.80000	     3.62104e-17	
     7609.70000	     3.97332e-17	
     7611.60000	     4.81237e-17	
     7613.50000	     5.76161e-17	
     7615.40000	     7.00766e-17	
     7617.30000	     8.29281e-17	
     7619.20000	     9.27119e-17	
     7621.10000	     8.65518e-17	
     7623.00000	     7.15634e-17	
     7624.90000	     6.53863e-17	
     7626.80000	     5.84634e-17	
     7628.70000	     5.32883e-17	
     7630.60000	     5.16224e-17	
     7632.50000	     5.37660e-17	
     7634.40000	     5.38434e-17	
     7636.30000	     5.32122e-17	
     7638.20000	     5.48456e-17	
     7640.10000	     5.48159e-17	
     7642.00000	     5.42666e-17	
     7643.90000	     5.61408e-17	
     7645.80000	     5.63148e-17	
     7647.70000	     5.65047e-17	
     7649.60000	     5.56349e-17	
     7651.50000	     5.24224e-17	
     7653.40000	     5.28113e-17	
     7655.30000	     4.93350e-17	
     7657.20000	     4.18419e-17	
     7659.10000	     3.55329e-17	
     7661.00000	     2.86456e-17	
     7662.90000	     1.95841e-17	
     7664.80000	     1.49355e-17	
     7666.70000	     1.61043e-17	
     7668.60000	     2.54114e-17	
     7670.50000	     3.35961e-17	
     7672.40000	     4.08230e-17	
     7674.30000	     4.87129e-17	
     7676.20000	     5.37750e-17	
     7678.10000	     5.89745e-17	
     7680.00000	     6.43832e-17	
     7681.90000	     6.54945e-17	
     7683.80000	     6.71402e-17	
     7685.70000	     6.78888e-17	
     7687.60000	     6.75215e-17	
     7689.50000	     6.43653e-17	
     7691.40000	     5.96868e-17	
     7693.30000	     5.12186e-17	
     7695.20000	     4.21696e-17	
     7697.10000	     3.00583e-17	
     7699.00000	     2.21216e-17	
     7700.90000	     2.50294e-17	
     7702.80000	     3.55506e-17	
     7704.70000	     4.89877e-17	
     7706.60000	     5.58509e-17	
     7708.50000	     6.50467e-17	
     7710.40000	     6.92205e-17	
     7712.30000	     7.64805e-17	
     7714.20000	     8.37271e-17	
     7716.10000	     8.68082e-17	
     7718.00000	     8.91157e-17	
     7719.90000	     9.27538e-17	
     7721.80000	     8.78301e-17	
     7723.70000	     9.24468e-17	
     7725.60000	     9.67000e-17	
     7727.50000	     9.90142e-17	
     7729.40000	     9.93705e-17	
     7731.30000	     9.79159e-17	
     7733.20000	     1.03879e-16	
     7735.10000	     1.03671e-16	
     7737.00000	     1.06375e-16	
     7738.90000	     1.10519e-16	
     7740.80000	     1.09521e-16	
     7742.70000	     1.04483e-16	
     7744.60000	     9.94213e-17	
     7746.50000	     9.78867e-17	
     7748.40000	     1.00092e-16	
     7750.30000	     9.74913e-17	
     7752.20000	     1.05843e-16	
     7754.10000	     1.01962e-16	
     7756.00000	     1.06156e-16	
     7757.90000	     1.10401e-16	
     7759.80000	     1.01028e-16	
     7761.70000	     1.03076e-16	
     7763.60000	     1.02852e-16	
     7765.50000	     1.03447e-16	
     7767.40000	     1.06570e-16	
     7769.30000	     1.08014e-16	
     7771.20000	     1.11623e-16	
     7773.10000	     1.10670e-16	
     7775.00000	     1.12348e-16	
     7776.90000	     1.12220e-16	
     7778.80000	     1.10016e-16	
     7780.70000	     1.08831e-16	
     7782.60000	     1.09734e-16	
     7784.50000	     1.07286e-16	
     7786.40000	     1.03767e-16	
     7788.30000	     1.02637e-16	
     7790.20000	     1.09371e-16	
     7792.10000	     1.16742e-16	
     7794.00000	     1.11316e-16	
     7795.90000	     1.11161e-16	
     7797.80000	     1.02762e-16	
     7799.70000	     9.12856e-17	
     7801.60000	     9.47013e-17	
     7803.50000	     1.07409e-16	
     7805.40000	     1.22261e-16	
     7807.30000	     1.23904e-16	
     7809.20000	     1.25609e-16	
     7811.10000	     1.26270e-16	
     7813.00000	     1.27344e-16	
     7814.90000	     1.31818e-16	
     7816.80000	     1.31020e-16	
     7818.70000	     1.28016e-16	
     7820.60000	     1.20372e-16	
     7822.50000	     1.19387e-16	
     7824.40000	     1.17906e-16	
     7826.30000	     1.18352e-16	
     7828.20000	     1.14376e-16	
     7830.10000	     1.14557e-16	
     7832.00000	     1.17864e-16	
     7833.90000	     1.21114e-16	
     7835.80000	     1.22126e-16	
     7837.70000	     1.23692e-16	
     7839.60000	     1.19748e-16	
     7841.50000	     1.22716e-16	
     7843.40000	     1.28726e-16	
     7845.30000	     1.30330e-16	
     7847.20000	     1.28380e-16	
     7849.10000	     1.29123e-16	
     7851.00000	     1.26892e-16	
     7852.90000	     1.22497e-16	
     7854.80000	     1.27806e-16	
     7856.70000	     1.28852e-16	
     7858.60000	     1.31294e-16	
     7860.50000	     1.28353e-16	
     7862.40000	     1.27257e-16	
     7864.30000	     1.22873e-16	
     7866.20000	     1.21080e-16	
     7868.10000	     1.17937e-16	
     7870.00000	     1.14332e-16	
     7871.90000	     1.14695e-16	
     7873.80000	     1.15949e-16	
     7875.70000	     1.16598e-16	
     7877.60000	     1.20634e-16	
     7879.50000	     1.27481e-16	
     7881.40000	     1.29746e-16	
     7883.30000	     1.32716e-16	
     7885.20000	     1.33337e-16	
     7887.10000	     1.34938e-16	
     7889.00000	     1.38489e-16	
     7890.90000	     1.36628e-16	
     7892.80000	     1.33609e-16	
     7894.70000	     1.30050e-16	
     7896.60000	     1.23291e-16	
     7898.50000	     1.14395e-16	
     7900.40000	     1.12696e-16	
     7902.30000	     1.17571e-16	
     7904.20000	     1.22200e-16	
     7906.10000	     1.23873e-16	
     7908.00000	     1.19181e-16	
     7909.90000	     1.13933e-16	
     7911.80000	     1.17956e-16	
     7913.70000	     1.17467e-16	
     7915.60000	     1.15605e-16	
     7917.50000	     1.17510e-16	
     7919.40000	     1.15527e-16	
     7921.30000	     1.11764e-16	
     7923.20000	     1.15436e-16	
     7925.10000	     1.18339e-16	
     7927.00000	     1.22622e-16	
     7928.90000	     1.21773e-16	
     7930.80000	     1.28247e-16	
     7932.70000	     1.31991e-16	
     7934.60000	     1.31502e-16	
     7936.50000	     1.29292e-16	
     7938.40000	     1.23622e-16	
     7940.30000	     1.10517e-16	
     7942.20000	     1.10295e-16	
     7944.10000	     1.08080e-16	
     7946.00000	     1.00010e-16	
     7947.90000	     9.76589e-17	
     7949.80000	     1.07869e-16	
     7951.70000	     1.21668e-16	
     7953.60000	     1.28830e-16	
     7955.50000	     1.31859e-16	
     7957.40000	     1.28141e-16	
     7959.30000	     1.22114e-16	
     7961.20000	     1.17989e-16	
     7963.10000	     1.19900e-16	
     7965.00000	     1.25808e-16	
     7966.90000	     1.33224e-16	
     7968.80000	     1.36474e-16	
     7970.70000	     1.41163e-16	
     7972.60000	     1.35043e-16	
     7974.50000	     1.27634e-16	
     7976.40000	     1.20276e-16	
     7978.30000	     1.21318e-16	
     7980.20000	     1.20580e-16	
     7982.10000	     1.20387e-16	
     7984.00000	     1.15978e-16	
     7985.90000	     1.16636e-16	
     7987.80000	     1.19176e-16	
     7989.70000	     1.19246e-16	
     7991.60000	     1.24397e-16	
     7993.50000	     1.26024e-16	
     7995.40000	     1.24793e-16	
     7997.30000	     1.27168e-16	
     7999.20000	     1.28226e-16	
     8001.10000	     1.32857e-16	
     8003.00000	     1.34842e-16	
     8004.90000	     1.35893e-16	
     8006.80000	     1.41934e-16	
     8008.70000	     1.44947e-16	
     8010.60000	     1.42694e-16	
     8012.50000	     1.41831e-16	
     8014.40000	     1.42979e-16	
     8016.30000	     1.49411e-16	
     8018.20000	     1.55214e-16	
     8020.10000	     1.54716e-16	
     8022.00000	     1.56599e-16	
     8023.90000	     1.58302e-16	
     8025.80000	     1.63837e-16	
     8027.70000	     1.73170e-16	
     8029.60000	     1.72246e-16	
     8031.50000	     1.70888e-16	
     8033.40000	     1.70667e-16	
     8035.30000	     1.72569e-16	
     8037.20000	     1.75624e-16	
     8039.10000	     1.73675e-16	
     8041.00000	     1.72676e-16	
     8042.90000	     1.76941e-16	
     8044.80000	     1.79291e-16	
     8046.70000	     1.78245e-16	
     8048.60000	     1.86167e-16	
     8050.50000	     1.97534e-16	
     8052.40000	     2.03321e-16	
     8054.30000	     2.05969e-16	
     8056.20000	     2.07278e-16	
     8058.10000	     2.06517e-16	
     8060.00000	     2.07643e-16	
     8061.90000	     2.09374e-16	
     8063.80000	     2.07426e-16	
     8065.70000	     2.12251e-16	
     8067.60000	     2.19126e-16	
     8069.50000	     2.18666e-16	
     8071.40000	     2.22209e-16	
     8073.30000	     2.33209e-16	
     8075.20000	     2.36087e-16	
     8077.10000	     2.39527e-16	
     8079.00000	     2.43320e-16	
     8080.90000	     2.46826e-16	
     8082.80000	     2.52650e-16	
     8084.70000	     2.53532e-16	
     8086.60000	     2.50196e-16	
     8088.50000	     2.49481e-16	
     8090.40000	     2.50891e-16	
     8092.30000	     2.55904e-16	
     8094.20000	     2.56114e-16	
     8096.10000	     2.56239e-16	
     8098.00000	     2.53750e-16	
     8099.90000	     2.55276e-16	
     8101.80000	     2.57229e-16	
     8103.70000	     2.61758e-16	
     8105.60000	     2.69072e-16	
     8107.50000	     2.79800e-16	
     8109.40000	     2.84823e-16	
     8111.30000	     2.83651e-16	
     8113.20000	     2.79878e-16	
     8115.10000	     2.81939e-16	
     8117.00000	     2.88451e-16	
     8118.90000	     2.99161e-16	
     8120.80000	     3.05544e-16	
     8122.70000	     3.03358e-16	
     8124.60000	     3.07574e-16	
     8126.50000	     3.19356e-16	
     8128.40000	     3.21553e-16	
     8130.30000	     3.10639e-16	
     8132.20000	     3.09041e-16	
     8134.10000	     3.09421e-16	
     8136.00000	     3.19575e-16	
     8137.90000	     3.24452e-16	
     8139.80000	     3.18298e-16	
     8141.70000	     3.12412e-16	
     8143.60000	     3.08597e-16	
     8145.50000	     3.02349e-16	
     8147.40000	     3.03405e-16	
     8149.30000	     3.08275e-16	
     8151.20000	     3.14533e-16	
     8153.10000	     3.18227e-16	
     8155.00000	     3.17734e-16	
     8156.90000	     3.20172e-16	
     8158.80000	     3.20769e-16	
     8160.70000	     3.18652e-16	
     8162.60000	     3.20750e-16	
     8164.50000	     3.29926e-16	
     8166.40000	     3.43263e-16	
     8168.30000	     3.50578e-16	
     8170.20000	     3.52856e-16	
     8172.10000	     3.54683e-16	
     8174.00000	     3.45562e-16	
     8175.90000	     3.30364e-16	
     8177.80000	     3.08530e-16	
     8179.70000	     2.80511e-16	
     8181.60000	     2.58904e-16	
     8183.50000	     2.54045e-16	
     8185.40000	     2.81068e-16	
     8187.30000	     3.07923e-16	
     8189.20000	     3.11851e-16	
     8191.10000	     2.83469e-16	
     8193.00000	     2.39591e-16	
     8194.90000	     2.19138e-16	
     8196.80000	     2.34777e-16	
     8198.70000	     2.62989e-16	
     8200.60000	     2.91178e-16	
     8202.50000	     3.13342e-16	
     8204.40000	     3.11055e-16	
     8206.30000	     2.96460e-16	
     8208.20000	     2.94718e-16	
     8210.10000	     3.03618e-16	
     8212.00000	     3.12732e-16	
     8213.90000	     3.09500e-16	
     8215.80000	     3.03897e-16	
     8217.70000	     3.11249e-16	
     8219.60000	     3.17526e-16	
     8221.50000	     3.28843e-16	
     8223.40000	     3.23762e-16	
     8225.30000	     3.13050e-16	
     8227.20000	     3.07763e-16	
     8229.10000	     3.15828e-16	
     8231.00000	     3.27692e-16	
     8232.90000	     3.31711e-16	
     8234.80000	     3.43509e-16	
     8236.70000	     3.57616e-16	
     8238.60000	     3.63484e-16	
     8240.50000	     3.66200e-16	
     8242.40000	     3.65337e-16	
     8244.30000	     3.68913e-16	
     8246.20000	     3.72670e-16	
     8248.10000	     3.70567e-16	
     8250.00000	     3.57674e-16	
     8251.90000	     3.36349e-16	
     8253.80000	     3.31750e-16	
     8255.70000	     3.27660e-16	
     8257.60000	     3.35945e-16	
     8259.50000	     3.53159e-16	
     8261.40000	     3.64265e-16	
     8263.30000	     3.65394e-16	
     8265.20000	     3.65628e-16	
     8267.10000	     3.61637e-16	
     8269.00000	     3.48589e-16	
     8270.90000	     3.30848e-16	
     8272.80000	     3.27846e-16	
     8274.70000	     3.26839e-16	
     8276.60000	     3.33041e-16	
     8278.50000	     3.34748e-16	
     8280.40000	     3.25446e-16	
     8282.30000	     3.21266e-16	
     8284.20000	     3.23123e-16	
     8286.10000	     3.13189e-16	
     8288.00000	     2.94074e-16	
     8289.90000	     2.87417e-16	
     8291.80000	     2.90705e-16	
     8293.70000	     2.92549e-16	
     8295.60000	     2.90969e-16	
     8297.50000	     2.91032e-16	
     8299.40000	     2.88970e-16	
     8301.30000	     2.80123e-16	
     8303.20000	     2.76928e-16	
     8305.10000	     2.79539e-16	
     8307.00000	     2.89681e-16	
     8308.90000	     2.98526e-16	
     8310.80000	     2.98290e-16	
     8312.70000	     2.97239e-16	
     8314.60000	     3.02306e-16	
     8316.50000	     3.05304e-16	
     8318.40000	     3.10614e-16	
     8320.30000	     3.17712e-16	
     8322.20000	     3.23670e-16	
     8324.10000	     3.28027e-16	
     8326.00000	     3.23558e-16	
     8327.90000	     3.20375e-16	
     8329.80000	     3.28758e-16	
     8331.70000	     3.31156e-16	
     8333.60000	     3.13134e-16	
     8335.50000	     2.97542e-16	
     8337.40000	     3.04477e-16	
     8339.30000	     3.17936e-16	
     8341.20000	     3.24760e-16	
     8343.10000	     3.12538e-16	
     8345.00000	     3.10467e-16	
     8346.90000	     3.12719e-16	
     8348.80000	     3.22329e-16	
     8350.70000	     3.23970e-16	
     8352.60000	     3.19899e-16	
     8354.50000	     3.16908e-16	
     8356.40000	     3.24162e-16	
     8358.30000	     3.31420e-16	
     8360.20000	     3.36354e-16	
     8362.10000	     3.32255e-16	
     8364.00000	     3.31790e-16	
     8365.90000	     3.43189e-16	
     8367.80000	     3.50336e-16	
     8369.70000	     3.49201e-16	
     8371.60000	     3.38579e-16	
     8373.50000	     3.13873e-16	
     8375.40000	     3.18977e-16	
     8377.30000	     3.28717e-16	
     8379.20000	     3.44628e-16	
     8381.10000	     3.40537e-16	
     8383.00000	     3.32856e-16	
     8384.90000	     3.26717e-16	
     8386.80000	     3.07051e-16	
     8388.70000	     3.03228e-16	
     8390.60000	     3.15134e-16	
     8392.50000	     3.20522e-16	
     8394.40000	     3.23318e-16	
     8396.30000	     3.29455e-16	
     8398.20000	     3.36621e-16	
     8400.10000	     3.45058e-16	
     8402.00000	     3.52943e-16	
     8403.90000	     3.51678e-16	
     8405.80000	     3.58079e-16	
     8407.70000	     3.65784e-16	
     8409.60000	     3.55424e-16	
     8411.50000	     3.65593e-16	
     8413.40000	     3.72799e-16	
     8415.30000	     3.73764e-16	
     8417.20000	     3.57256e-16	
     8419.10000	     3.29565e-16	
     8421.00000	     3.28168e-16	
     8422.90000	     3.32662e-16	
     8424.80000	     3.38126e-16	
     8426.70000	     3.37746e-16	
     8428.60000	     3.30996e-16	
     8430.50000	     3.16872e-16	
     8432.40000	     2.86275e-16	
     8434.30000	     2.55669e-16	
     8436.20000	     2.55536e-16	
     8438.10000	     2.67334e-16	
     8440.00000	     2.63485e-16	
     8441.90000	     2.39175e-16	
     8443.80000	     2.20223e-16	
     8445.70000	     2.20857e-16	
     8447.60000	     2.26627e-16	
     8449.50000	     2.20638e-16	
     8451.40000	     2.08538e-16	
     8453.30000	     1.98591e-16	
     8455.20000	     1.95626e-16	
     8457.10000	     2.03050e-16	
     8459.00000	     2.04968e-16	
     8460.90000	     2.03472e-16	
     8462.80000	     2.04282e-16	
     8464.70000	     1.98114e-16	
     8466.60000	     1.97712e-16	
     8468.50000	     2.03158e-16	
     8470.40000	     1.98105e-16	
     8472.30000	     2.03268e-16	
     8474.20000	     2.09292e-16	
     8476.10000	     2.08928e-16	
     8478.00000	     2.15962e-16	
     8479.90000	     2.16159e-16	
     8481.80000	     2.12117e-16	
     8483.70000	     2.15629e-16	
     8485.60000	     2.21234e-16	
     8487.50000	     2.24490e-16	
     8489.40000	     2.34328e-16	
     8491.30000	     2.40663e-16	
     8493.20000	     2.37429e-16	
     8495.10000	     2.31365e-16	
     8497.00000	     2.28154e-16	
     8498.90000	     2.28678e-16	
     8500.80000	     2.26534e-16	
     8502.70000	     2.29929e-16	
     8504.60000	     2.23633e-16	
     8506.50000	     2.17423e-16	
     8508.40000	     2.26035e-16	
     8510.30000	     2.31526e-16	
     8512.20000	     2.30650e-16	
     8514.10000	     2.21790e-16	
     8516.00000	     2.12234e-16	
     8517.90000	     2.01512e-16	
     8519.80000	     1.90769e-16	
     8521.70000	     1.94973e-16	
     8523.60000	     2.11115e-16	
     8525.50000	     2.26117e-16	
     8527.40000	     2.31360e-16	
     8529.30000	     2.31906e-16	
     8531.20000	     2.38494e-16	
     8533.10000	     2.44998e-16	
     8535.00000	     2.43834e-16	
     8536.90000	     2.41843e-16	
     8538.80000	     2.35843e-16	
     8540.70000	     2.38477e-16	
     8542.60000	     2.45142e-16	
     8544.50000	     2.49738e-16	
     8546.40000	     2.57876e-16	
     8548.30000	     2.64241e-16	
     8550.20000	     2.63977e-16	
     8552.10000	     2.70718e-16	
     8554.00000	     2.79384e-16	
     8555.90000	     2.74922e-16	
     8557.80000	     2.69914e-16	
     8559.70000	     2.64838e-16	
     8561.60000	     2.68241e-16	
     8563.50000	     2.80031e-16	
     8565.40000	     2.87932e-16	
     8567.30000	     2.88085e-16	
     8569.20000	     2.78939e-16	
     8571.10000	     2.72092e-16	
     8573.00000	     2.62283e-16	
     8574.90000	     2.69354e-16	
     8576.80000	     2.76257e-16	
     8578.70000	     2.79015e-16	
     8580.60000	     2.79711e-16	
     8582.50000	     2.80846e-16	
     8584.40000	     2.89480e-16	
     8586.30000	     2.91280e-16	
     8588.20000	     2.90341e-16	
     8590.10000	     2.86657e-16	
     8592.00000	     2.79724e-16	
     8593.90000	     2.87962e-16	
     8595.80000	     2.93619e-16	
     8597.70000	     2.92397e-16	
     8599.60000	     2.96491e-16	
     8601.50000	     2.96700e-16	
     8603.40000	     2.95258e-16	
     8605.30000	     3.01206e-16	
     8607.20000	     3.00886e-16	
     8609.10000	     2.93102e-16	
     8611.00000	     2.75212e-16	
     8612.90000	     2.64822e-16	
     8614.80000	     2.58704e-16	
     8616.70000	     2.54110e-16	
     8618.60000	     2.54997e-16	
     8620.50000	     2.61012e-16	
     8622.40000	     2.48602e-16	
     8624.30000	     2.36602e-16	
     8626.20000	     2.41817e-16	
     8628.10000	     2.32234e-16	
     8630.00000	     2.37349e-16	
     8631.90000	     2.37231e-16	
     8633.80000	     2.53472e-16	
     8635.70000	     2.90772e-16	
     8637.60000	     2.52984e-16	
     8639.50000	     2.53402e-16	
     8641.40000	     2.58287e-16	
     8643.30000	     2.54731e-16	
     8645.20000	     2.47196e-16	
     8647.10000	     2.49947e-16	
     8649.00000	     2.61462e-16	
     8650.90000	     2.69476e-16	
     8652.80000	     2.80512e-16	
     8654.70000	     2.84990e-16	
     8656.60000	     2.91873e-16	
     8658.50000	     2.81915e-16	
     8660.40000	     2.82625e-16	
     8662.30000	     2.81734e-16	
     8664.20000	     2.83063e-16	
     8666.10000	     2.86640e-16	
     8668.00000	     2.82580e-16	
     8669.90000	     2.79347e-16	
     8671.80000	     2.78458e-16	
     8673.70000	     2.89802e-16	
     8675.60000	     2.98115e-16	
     8677.50000	     3.00473e-16	
     8679.40000	     2.99268e-16	
     8681.30000	     2.93357e-16	
     8683.20000	     2.93141e-16	
     8685.10000	     2.90388e-16	
     8687.00000	     2.84464e-16	
     8688.90000	     2.69516e-16	
     8690.80000	     2.55893e-16	
     8692.70000	     2.35866e-16	
     8694.60000	     2.26539e-16	
     8696.50000	     2.26443e-16	
     8698.40000	     2.40088e-16	
     8700.30000	     2.45679e-16	
     8702.20000	     2.52663e-16	
     8704.10000	     2.57308e-16	
     8706.00000	     2.55490e-16	
     8707.90000	     2.47414e-16	
     8709.80000	     2.39165e-16	
     8711.70000	     2.35999e-16	
     8713.60000	     2.38545e-16	
     8715.50000	     2.42012e-16	
     8717.40000	     2.44129e-16	
     8719.30000	     2.47070e-16	
     8721.20000	     2.53688e-16	
     8723.10000	     2.62446e-16	
     8725.00000	     2.75517e-16	
     8726.90000	     2.87712e-16	
     8728.80000	     2.90831e-16	
     8730.70000	     2.80705e-16	
     8732.60000	     2.66528e-16	
     8734.50000	     2.65943e-16	
     8736.40000	     2.78480e-16	
     8738.30000	     2.85775e-16	
     8740.20000	     2.89041e-16	
     8742.10000	     3.07590e-16	
     8744.00000	     3.16603e-16	
     8745.90000	     3.08979e-16	
     8747.80000	     2.92921e-16	
     8749.70000	     2.91413e-16	
     8751.60000	     3.03365e-16	
     8753.50000	     3.15006e-16	
     8755.40000	     3.18011e-16	
     8757.30000	     3.26686e-16	
     8759.20000	     3.37344e-16	
     8761.10000	     3.26031e-16	
     8763.00000	     3.10639e-16	
     8764.90000	     3.01066e-16	
     8766.80000	     3.08114e-16	
     8768.70000	     3.30864e-16	
     8770.60000	     3.59516e-16	
     8772.50000	     3.89072e-16	
     8774.40000	     4.13117e-16	
     8776.30000	     3.87353e-16	
     8778.20000	     3.42415e-16	
     8780.10000	     3.23648e-16	
     8782.00000	     3.36660e-16	
     8783.90000	     3.48895e-16	
     8785.80000	     3.48383e-16	
     8787.70000	     3.54523e-16	
     8789.60000	     3.60885e-16	
     8791.50000	     3.62658e-16	
     8793.40000	     3.74114e-16	
     8795.30000	     3.87644e-16	
     8797.20000	     3.85007e-16	
     8799.10000	     3.59085e-16	
     8801.00000	     3.25087e-16	
     8802.90000	     3.21225e-16	
     8804.80000	     3.33161e-16	
     8806.70000	     3.40266e-16	
     8808.60000	     3.61245e-16	
     8810.50000	     3.97716e-16	
     8812.40000	     4.27734e-16	
     8814.30000	     4.44365e-16	
     8816.20000	     4.55800e-16	
     8818.10000	     4.46405e-16	
     8820.00000	     4.15271e-16	
     8821.90000	     3.82573e-16	
     8823.80000	     3.72531e-16	
     8825.70000	     3.72273e-16	
     8827.60000	     3.82984e-16	
     8829.50000	     4.09872e-16	
     8831.40000	     4.21862e-16	
     8833.30000	     4.22358e-16	
     8835.20000	     4.31985e-16	
     8837.10000	     4.45637e-16	
     8839.00000	     4.55457e-16	
     8840.90000	     4.56157e-16	
     8842.80000	     4.31164e-16	
     8844.70000	     3.90706e-16	
     8846.60000	     3.71883e-16	
     8848.50000	     3.85617e-16	
     8850.40000	     4.32121e-16	
     8852.30000	     4.82190e-16	
     8854.20000	     4.81774e-16	
     8856.10000	     4.29966e-16	
     8858.00000	     3.71291e-16	
     8859.90000	     3.39039e-16	
     8861.80000	     3.28037e-16	
     8863.70000	     3.46734e-16	
     8865.60000	     3.63744e-16	
     8867.50000	     3.43612e-16	
     8869.40000	     3.10761e-16	
     8871.30000	     2.81160e-16	
     8873.20000	     2.93966e-16	
     8875.10000	     3.17682e-16	
     8877.00000	     3.45391e-16	
     8878.90000	     3.65211e-16	
     8880.80000	     3.60432e-16	
     8882.70000	     3.36521e-16	
     8884.60000	     3.29457e-16	
     8886.50000	     3.44930e-16	
     8888.40000	     3.67365e-16	
     8890.30000	     3.76067e-16	
     8892.20000	     3.59231e-16	
     8894.10000	     3.35733e-16	
     8896.00000	     3.22458e-16	
     8897.90000	     3.35005e-16	
     8899.80000	     3.71403e-16	
     8901.70000	     4.01453e-16	
     8903.60000	     4.15845e-16	
     8905.50000	     4.08321e-16	
     8907.40000	     3.90982e-16	
     8909.30000	     3.74527e-16	
     8911.20000	     3.70375e-16	
     8913.10000	     3.90839e-16	
     8915.00000	     4.01829e-16	
     8916.90000	     4.07219e-16	
     8918.80000	     4.21344e-16	
     8920.70000	     4.14305e-16	
     8922.60000	     4.08403e-16	
     8924.50000	     3.90681e-16	
     8926.40000	     3.88713e-16	
     8928.30000	     4.10732e-16	
     8930.20000	     4.42909e-16	
     8932.10000	     4.77127e-16	
     8934.00000	     4.76300e-16	
     8935.90000	     4.32368e-16	
     8937.80000	     3.79121e-16	
     8939.70000	     3.52280e-16	
     8941.60000	     3.41488e-16	
     8943.50000	     3.45464e-16	
     8945.40000	     3.60581e-16	
     8947.30000	     3.85043e-16	
     8949.20000	     3.88630e-16	
     8951.10000	     3.76598e-16	
     8953.00000	     3.77621e-16	
     8954.90000	     4.04755e-16	
     8956.80000	     4.26462e-16	
     8958.70000	     4.29048e-16	
     8960.60000	     4.10646e-16	
     8962.50000	     3.87158e-16	
     8964.40000	     3.71337e-16	
     8966.30000	     3.75355e-16	
     8968.20000	     3.96838e-16	
     8970.10000	     4.09494e-16	
     8972.00000	     4.07120e-16	
     8973.90000	     4.23913e-16	
     8975.80000	     4.53198e-16	
     8977.70000	     4.56330e-16	
     8979.60000	     4.30960e-16	
     8981.50000	     4.34559e-16	
     8983.40000	     4.62082e-16	
     8985.30000	     4.57553e-16	
     8987.20000	     4.30366e-16	
     8989.10000	     4.07489e-16	
     8991.00000	     4.01875e-16	
     8992.90000	     4.22556e-16	
     8994.80000	     4.40074e-16	
     8996.70000	     4.31468e-16	
     8998.60000	     4.17982e-16	
     9000.50000	     4.38033e-16	
     9002.40000	     4.75498e-16	
     9004.30000	     5.02685e-16	
     9006.20000	     4.92557e-16	
     9008.10000	     4.71300e-16	
     9010.00000	     4.69300e-16	
     9011.90000	     4.83593e-16	
     9013.80000	     4.85104e-16	
     9015.70000	     4.64504e-16	
     9017.60000	     4.45954e-16	
     9019.50000	     4.35332e-16	
     9021.40000	     4.11807e-16	
     9023.30000	     3.92978e-16	
     9025.20000	     3.91334e-16	
     9027.10000	     4.09104e-16	
     9029.00000	     4.36166e-16	
     9030.90000	     4.58265e-16	
     9032.80000	     4.89657e-16	
     9034.70000	     5.13209e-16	
     9036.60000	     5.28301e-16	
     9038.50000	     5.32191e-16	
     9040.40000	     5.16737e-16	
     9042.30000	     4.98721e-16	
     9044.20000	     5.17777e-16	
     9046.10000	     5.38417e-16	
     9048.00000	     5.40170e-16	
     9049.90000	     5.16830e-16	
     9051.80000	     4.84243e-16	
     9053.70000	     4.69430e-16	
     9055.60000	     4.70073e-16	
     9057.50000	     4.62298e-16	
     9059.40000	     4.49976e-16	
     9061.30000	     4.45493e-16	
     9063.20000	     4.40677e-16	
     9065.10000	     4.36161e-16	
     9067.00000	     4.24711e-16	
     9068.90000	     4.21912e-16	
     9070.80000	     4.22653e-16	
     9072.70000	     4.34106e-16	
     9074.60000	     4.59598e-16	
     9076.50000	     4.89683e-16	
     9078.40000	     4.97234e-16	
     9080.30000	     4.80502e-16	
     9082.20000	     4.83846e-16	
     9084.10000	     4.81508e-16	
     9086.00000	     4.65923e-16	
     9087.90000	     4.72236e-16	
     9089.80000	     4.94590e-16	
     9091.70000	     5.13428e-16	
     9093.60000	     5.19308e-16	
     9095.50000	     5.29274e-16	
     9097.40000	     5.31696e-16	
     9099.30000	     5.22310e-16	
     9101.20000	     5.22047e-16	
     9103.10000	     5.18488e-16	
     9105.00000	     5.12494e-16	
     9106.90000	     5.40590e-16	
     9108.80000	     5.39736e-16	
     9110.70000	     5.72197e-16	
     9112.60000	     5.87467e-16	
     9114.50000	     5.64201e-16	
     9116.40000	     5.39026e-16	
     9118.30000	     5.46670e-16	
     9120.20000	     5.71925e-16	
     9122.10000	     5.74892e-16	
     9124.00000	     5.66924e-16	
     9125.90000	     5.58516e-16	
     9127.80000	     5.46841e-16	
     9129.70000	     5.40466e-16	
     9131.60000	     5.59623e-16	
     9133.50000	     5.57721e-16	
     9135.40000	     5.24906e-16	
     9137.30000	     4.99668e-16	
     9139.20000	     5.14982e-16	
     9141.10000	     5.53520e-16	
     9143.00000	     5.87665e-16	
     9144.90000	     5.97929e-16	
     9146.80000	     5.81168e-16	
     9148.70000	     5.51269e-16	
     9150.60000	     5.27857e-16	
     9152.50000	     5.46034e-16	
     9154.40000	     5.82264e-16	
     9156.30000	     6.13864e-16	
     9158.20000	     6.19620e-16	
     9160.10000	     6.07707e-16	
     9162.00000	     6.08419e-16	
     9163.90000	     6.26121e-16	
     9165.80000	     6.50631e-16	
     9167.70000	     6.50636e-16	
     9169.60000	     6.28491e-16	
     9171.50000	     6.00076e-16	
     9173.40000	     5.55204e-16	
     9175.30000	     5.49841e-16	
     9177.20000	     5.85057e-16	
     9179.10000	     6.16623e-16	
     9181.00000	     6.20296e-16	
     9182.90000	     6.01204e-16	
     9184.80000	     6.13188e-16	
     9186.70000	     6.67190e-16	
     9188.60000	     7.23533e-16	
     9190.50000	     7.16561e-16	
     9192.40000	     6.65374e-16	
     9194.30000	     6.45676e-16	
     9196.20000	     6.75378e-16	
     9198.10000	     7.03638e-16	
     9200.00000	     7.07185e-16	
     9201.90000	     7.12752e-16	
     9203.80000	     6.94675e-16	
     9205.70000	     6.38401e-16	
     9207.60000	     5.90343e-16	
     9209.50000	     5.82114e-16	
     9211.40000	     5.95153e-16	
     9213.30000	     5.99100e-16	
     9215.20000	     6.02463e-16	
     9217.10000	     6.11138e-16	
     9219.00000	     6.13858e-16	
     9220.90000	     6.14146e-16	
     9222.80000	     6.05053e-16	
     9224.70000	     6.06879e-16	
     9226.60000	     6.11665e-16	
     9228.50000	     6.02404e-16	
     9230.40000	     5.77969e-16	
     9232.30000	     5.61262e-16	
     9234.20000	     5.96869e-16	
     9236.10000	     5.81372e-16	
     9238.00000	     5.70770e-16	
     9239.90000	     5.94329e-16	
     9241.80000	     6.23958e-16	
     9243.70000	     6.07627e-16	
     9245.60000	     5.69674e-16	
     9247.50000	     5.48682e-16	
     9249.40000	     5.44383e-16	
     9251.30000	     5.58765e-16	
     9253.20000	     5.83951e-16	
     9255.10000	     6.28651e-16	
     9257.00000	     6.43029e-16	
     9258.90000	     6.22518e-16	
     9260.80000	     6.09282e-16	
     9262.70000	     6.25544e-16	
     9264.60000	     6.65700e-16	
     9266.50000	     6.81300e-16	
     9268.40000	     6.63248e-16	
     9270.30000	     6.31849e-16	
     9272.20000	     5.97491e-16	
     9274.10000	     5.67131e-16	
     9276.00000	     5.30217e-16	
     9277.90000	     5.12128e-16	
     9279.80000	     5.36424e-16	
     9281.70000	     5.72392e-16	
     9283.60000	     5.82789e-16	
     9285.50000	     5.61512e-16	
     9287.40000	     5.62710e-16	
     9289.30000	     5.66988e-16	
     9291.20000	     5.50002e-16	
     9293.10000	     5.33432e-16	
     9295.00000	     5.32610e-16	
     9296.90000	     4.98452e-16	
     9298.80000	     4.74489e-16	
     9300.70000	     4.72466e-16	
     9302.60000	     4.93047e-16	
     9304.50000	     4.95717e-16	
     9306.40000	     4.73577e-16	
     9308.30000	     4.79303e-16	
     9310.20000	     5.08870e-16	
     9312.10000	     5.44411e-16	
     9314.00000	     5.15101e-16	
     9315.90000	     4.72381e-16	
     9317.80000	     4.39196e-16	
     9319.70000	     4.76711e-16	
     9321.60000	     4.62926e-16	
     9323.50000	     4.35979e-16	
     9325.40000	     4.31140e-16	
     9327.30000	     4.73310e-16	
     9329.20000	     5.07400e-16	
     9331.10000	     4.93214e-16	
     9333.00000	     4.34090e-16	
     9334.90000	     4.11976e-16	
     9336.80000	     4.38183e-16	
     9338.70000	     4.45478e-16	
     9340.60000	     4.04587e-16	
     9342.50000	     3.41708e-16	
     9344.40000	     3.52471e-16	
     9346.30000	     4.53900e-16	
     9348.20000	     5.31785e-16	
     9350.10000	     5.36549e-16	
     9352.00000	     4.65084e-16	
     9353.90000	     3.95792e-16	
     9355.80000	     3.90545e-16	
     9357.70000	     4.15394e-16	
     9359.60000	     4.94141e-16	
     9361.50000	     5.42681e-16	
     9363.40000	     5.12439e-16	
     9365.30000	     4.62533e-16	
     9367.20000	     4.16674e-16	
     9369.10000	     3.81749e-16	
     9371.00000	     3.87392e-16	
     9372.90000	     4.53510e-16	
     9374.80000	     5.09771e-16	
     9376.70000	     4.66498e-16	
     9378.60000	     4.26846e-16	
     9380.50000	     4.52180e-16	
     9382.40000	     4.83401e-16	
     9384.30000	     5.03666e-16	
     9386.20000	     5.06100e-16	
     9388.10000	     5.43837e-16	
     9390.00000	     5.96957e-16	
     9391.90000	     6.11760e-16	
     9393.80000	     6.03194e-16	
     9395.70000	     5.72738e-16	
     9397.60000	     5.45067e-16	
     9399.50000	     5.33072e-16	
     9401.40000	     5.54493e-16	
     9403.30000	     5.79471e-16	
     9405.20000	     6.07201e-16	
     9407.10000	     6.05242e-16	
     9409.00000	     5.85039e-16	
     9410.90000	     5.81732e-16	
     9412.80000	     5.82616e-16	
     9414.70000	     5.87722e-16	
     9416.60000	     5.90275e-16	
     9418.50000	     6.06518e-16	
     9420.40000	     6.21512e-16	
     9422.30000	     6.24726e-16	
     9424.20000	     5.86191e-16	
     9426.10000	     4.96991e-16	
     9428.00000	     4.79640e-16	
     9429.90000	     5.57398e-16	
     9431.80000	     6.47638e-16	
     9433.70000	     6.76602e-16	
     9435.60000	     6.03248e-16	
     9437.50000	     5.02112e-16	
     9439.40000	     4.32108e-16	
     9441.30000	     4.32150e-16	
     9443.20000	     4.87484e-16	
     9445.10000	     5.57383e-16	
     9447.00000	     6.05362e-16	
     9448.90000	     6.26797e-16	
     9450.80000	     6.09787e-16	
     9452.70000	     5.79225e-16	
     9454.60000	     5.55892e-16	
     9456.50000	     5.24127e-16	
     9458.40000	     5.16214e-16	
     9460.30000	     5.21607e-16	
     9462.20000	     5.76974e-16	
     9464.10000	     6.22914e-16	
     9466.00000	     6.19330e-16	
     9467.90000	     5.92795e-16	
     9469.80000	     5.93124e-16	
     9471.70000	     6.30116e-16	
     9473.60000	     6.45999e-16	
     9475.50000	     6.51390e-16	
     9477.40000	     6.51388e-16	
     9479.30000	     5.92768e-16	
     9481.20000	     5.80944e-16	
     9483.10000	     6.47576e-16	
     9485.00000	     7.13839e-16	
     9486.90000	     7.53544e-16	
     9488.80000	     7.79434e-16	
     9490.70000	     7.51943e-16	
     9492.60000	     6.55927e-16	
     9494.50000	     6.16530e-16	
     9496.40000	     6.13660e-16	
     9498.30000	     5.97291e-16	
     9500.20000	     5.90513e-16	
     9502.10000	     6.51123e-16	
     9504.00000	     7.44199e-16	
     9505.90000	     8.10589e-16	
     9507.80000	     8.32445e-16	
     9509.70000	     8.25184e-16	
     9511.60000	     7.86851e-16	
     9513.50000	     7.28413e-16	
     9515.40000	     6.63834e-16	
     9517.30000	     6.22664e-16	
     9519.20000	     6.13126e-16	
     9521.10000	     6.32597e-16	
     9523.00000	     6.66576e-16	
     9524.90000	     6.99284e-16	
     9526.80000	     7.20010e-16	
     9528.70000	     7.35298e-16	
     9530.60000	     7.54564e-16	
     9532.50000	     7.55553e-16	
     9534.40000	     7.34725e-16	
     9536.30000	     7.31527e-16	
     9538.20000	     7.47466e-16	
     9540.10000	     7.47207e-16	
     9542.00000	     7.17746e-16	
     9543.90000	     6.88451e-16	
     9545.80000	     7.01265e-16	
     9547.70000	     7.28198e-16	
     9549.60000	     7.36178e-16	
     9551.50000	     7.04304e-16	
     9553.40000	     6.62960e-16	
     9555.30000	     6.70373e-16	
     9557.20000	     7.30655e-16	
     9559.10000	     7.79516e-16	
     9561.00000	     7.58558e-16	
     9562.90000	     6.99059e-16	
     9564.80000	     6.79330e-16	
     9566.70000	     7.12235e-16	
     9568.60000	     7.62808e-16	
     9570.50000	     8.01570e-16	
     9572.40000	     8.13971e-16	
     9574.30000	     8.05932e-16	
     9576.20000	     7.65675e-16	
     9578.10000	     7.19212e-16	
     9580.00000	     6.98570e-16	
     9581.90000	     7.28413e-16	
     9583.80000	     7.50230e-16	
     9585.70000	     7.14931e-16	
     9587.60000	     6.35981e-16	
     9589.50000	     6.00142e-16	
     9591.40000	     6.32030e-16	
     9593.30000	     6.71148e-16	
     9595.20000	     6.74462e-16	
     9597.10000	     6.80316e-16	
     9599.00000	     7.08944e-16	
     9600.90000	     7.52836e-16	
     9602.80000	     7.66372e-16	
     9604.70000	     7.50330e-16	
     9606.60000	     7.67538e-16	
     9608.50000	     7.80488e-16	
     9610.40000	     7.91448e-16	
     9612.30000	     8.25217e-16	
     9614.20000	     7.65078e-16	
     9616.10000	     7.59711e-16	
     9618.00000	     7.64484e-16	
     9619.90000	     7.50332e-16	
     9621.80000	     7.36467e-16	
     9623.70000	     7.39736e-16	
     9625.60000	     7.66351e-16	
     9627.50000	     7.80663e-16	
     9629.40000	     7.90103e-16	
     9631.30000	     7.93560e-16	
     9633.20000	     7.28528e-16	
     9635.10000	     6.49706e-16	
     9637.00000	     6.37727e-16	
     9638.90000	     8.08111e-16	
     9640.80000	     7.26295e-16	
     9642.70000	     6.89615e-16	
     9644.60000	     6.79189e-16	
     9646.50000	     7.08968e-16	
     9648.40000	     7.47155e-16	
     9650.30000	     7.32820e-16	
     9652.20000	     7.44567e-16	
     9654.10000	     7.48266e-16	
     9656.00000	     7.65006e-16	
     9657.90000	     7.72517e-16	
     9659.80000	     7.72379e-16	
     9661.70000	     7.76696e-16	
     9663.60000	     7.84395e-16	
     9665.50000	     8.00755e-16	
     9667.40000	     8.07033e-16	
     9669.30000	     8.08737e-16	
     9671.20000	     8.24895e-16	
     9673.10000	     8.49546e-16	
     9675.00000	     8.45947e-16	
     9676.90000	     8.41124e-16	
     9678.80000	     8.65953e-16	
     9680.70000	     8.39690e-16	
     9682.60000	     8.36291e-16	
     9684.50000	     8.42934e-16	
     9686.40000	     8.18376e-16	
     9688.30000	     8.27938e-16	
     9690.20000	     8.53490e-16	
     9692.10000	     8.61276e-16	
     9694.00000	     8.82254e-16	
     9695.90000	     8.94822e-16	
     9697.80000	     8.96685e-16	
     9699.70000	     8.56016e-16	
     9701.60000	     8.61595e-16	
     9703.50000	     8.54975e-16	
     9705.40000	     8.46885e-16	
     9707.30000	     8.91390e-16	
     9709.20000	     9.31457e-16	
     9711.10000	     9.52701e-16	
     9713.00000	     9.66712e-16	
     9714.90000	     9.80252e-16	
     9716.80000	     9.84607e-16	
     9718.70000	     9.79438e-16	
     9720.60000	     9.57127e-16	
     9722.50000	     9.42986e-16	
     9724.40000	     9.44414e-16	
     9726.30000	     9.34488e-16	
     9728.20000	     9.05093e-16	
     9730.10000	     9.52643e-16	
     9732.00000	     9.49923e-16	
     9733.90000	     8.81059e-16	
     9735.80000	     8.74307e-16	
     9737.70000	     8.95462e-16	
     9739.60000	     8.84011e-16	
     9741.50000	     8.38763e-16	
     9743.40000	     8.20502e-16	
     9745.30000	     8.51090e-16	
     9747.20000	     8.55305e-16	
     9749.10000	     8.36054e-16	
     9751.00000	     8.50424e-16	
     9752.90000	     8.61853e-16	
     9754.80000	     8.68356e-16	
     9756.70000	     8.75285e-16	
     9758.60000	     8.65135e-16	
     9760.50000	     8.67954e-16	
     9762.40000	     8.77882e-16	
     9764.30000	     9.17817e-16	
     9766.20000	     9.44811e-16	
     9768.10000	     9.32157e-16	
     9770.00000	     9.31089e-16	
     9771.90000	     9.44309e-16	
     9773.80000	     9.64460e-16	
     9775.70000	     9.70538e-16	
     9777.60000	     9.53047e-16	
     9779.50000	     9.42419e-16	
     9781.40000	     9.17784e-16	
     9783.30000	     9.12703e-16	
     9785.20000	     9.19161e-16	
     9787.10000	     9.43799e-16	
     9789.00000	     9.68175e-16	
     9790.90000	     1.01382e-15	
     9792.80000	     1.03342e-15	
     9794.70000	     1.06526e-15	
     9796.60000	     1.04054e-15	
     9798.50000	     1.03175e-15	
     9800.40000	     1.02939e-15	
     9802.30000	     1.01491e-15	
     9804.20000	     1.01211e-15	
     9806.10000	     1.01833e-15	
     9808.00000	     1.03372e-15	
     9809.90000	     1.01907e-15	
     9811.80000	     9.80158e-16	
     9813.70000	     9.66990e-16	
     9815.60000	     9.66757e-16	
     9817.50000	     9.74896e-16	
     9819.40000	     9.80765e-16	
     9821.30000	     9.89412e-16	
     9823.20000	     9.86323e-16	
     9825.10000	     9.75576e-16	
     9827.00000	     9.75207e-16	
     9828.90000	     9.70531e-16	
     9830.80000	     1.00320e-15	
     9832.70000	     9.89991e-16	
     9834.60000	     9.82746e-16	
     9836.50000	     9.78911e-16	
     9838.40000	     1.01897e-15	
     9840.30000	     1.05056e-15	
     9842.20000	     1.05739e-15	
     9844.10000	     1.06121e-15	
     9846.00000	     1.08555e-15	
     9847.90000	     1.07333e-15	
     9849.80000	     1.04792e-15	
     9851.70000	     1.05420e-15	
     9853.60000	     1.09013e-15	
     9855.50000	     1.09202e-15	
     9857.40000	     1.08170e-15	
     9859.30000	     1.07073e-15	
     9861.20000	     1.06378e-15	
     9863.10000	     1.07612e-15	
     9865.00000	     1.05389e-15	
     9866.90000	     1.00629e-15	
     9868.80000	     9.84093e-16	
     9870.70000	     1.04793e-15	
     9872.60000	     1.10729e-15	
     9874.50000	     1.13207e-15	
     9876.40000	     1.10254e-15	
     9878.30000	     1.08310e-15	
     9880.20000	     1.11037e-15	
     9882.10000	     1.14796e-15	
     9884.00000	     1.19320e-15	
     9885.90000	     1.20694e-15	
     9887.80000	     1.20349e-15	
     9889.70000	     1.14907e-15	
     9891.60000	     1.07291e-15	
     9893.50000	     9.96893e-16	
     9895.40000	     9.15855e-16	
     9897.30000	     8.37563e-16	
     9899.20000	     7.78519e-16	
     9901.10000	     7.25962e-16	
     9903.00000	     6.63748e-16	
     9904.90000	     5.99461e-16	
     9906.80000	     5.50867e-16	
     9908.70000	     5.47687e-16	
     9910.60000	     5.61573e-16	
     9912.50000	     5.59659e-16	
     9914.40000	     5.58569e-16	
     9916.30000	     5.81618e-16	
     9918.20000	     6.31475e-16	
     9920.10000	     6.26389e-16	
     9922.00000	     5.76465e-16	
     9923.90000	     5.64178e-16	
     9925.80000	     5.93349e-16	
     9927.70000	     6.08925e-16	
     9929.60000	     6.57392e-16	
     9931.50000	     6.73887e-16	
     9933.40000	     6.32698e-16	
     9935.30000	     6.72606e-16	
     9937.20000	     7.43069e-16	
     9939.10000	     7.53784e-16	
#time:0.094926
