# Keck LRIS spectra of late-M, L and T dwarfs
# spty = L2  (Spectral type)
#
#     WAVELENGTH	#           FLUX	
#     (ANGSTROM)	#  (ERG/CM2/S/A)	
################	################	
      6300.00000	     2.21478e-17	
      6301.89845	     2.60882e-17	
      6303.79690	     2.30369e-17	
      6305.69535	     2.56766e-17	
      6307.59380	     2.46516e-17	
      6309.49225	     2.62138e-17	
      6311.39070	     2.44787e-17	
      6313.28914	     2.56358e-17	
      6315.18759	     2.92573e-17	
      6317.08604	     3.02898e-17	
      6318.98449	     2.53120e-17	
      6320.88294	     2.43046e-17	
      6322.78139	     3.15824e-17	
      6324.67984	     2.92497e-17	
      6326.57829	     3.07679e-17	
      6328.47674	     3.02074e-17	
      6330.37519	     3.09130e-17	
      6332.27364	     3.07526e-17	
      6334.17209	     2.78296e-17	
      6336.07054	     2.66473e-17	
      6337.96898	     3.11740e-17	
      6339.86743	     3.08019e-17	
      6341.76588	     3.00832e-17	
      6343.66433	     3.05311e-17	
      6345.56278	     3.50070e-17	
      6347.46123	     3.39850e-17	
      6349.35968	     3.11686e-17	
      6351.25813	     3.45170e-17	
      6353.15658	     3.59034e-17	
      6355.05503	     3.13753e-17	
      6356.95348	     3.30401e-17	
      6358.85193	     3.63807e-17	
      6360.75038	     3.34350e-17	
      6362.64882	     2.98286e-17	
      6364.54727	     2.99843e-17	
      6366.44572	     2.80631e-17	
      6368.34417	     2.78180e-17	
      6370.24262	     3.15809e-17	
      6372.14107	     3.24139e-17	
      6374.03952	     2.95514e-17	
      6375.93797	     2.90293e-17	
      6377.83642	     2.92454e-17	
      6379.73487	     3.28976e-17	
      6381.63332	     3.18692e-17	
      6383.53177	     3.23726e-17	
      6385.43022	     3.13127e-17	
      6387.32866	     3.23593e-17	
      6389.22711	     3.12896e-17	
      6391.12556	     3.35917e-17	
      6393.02401	     2.99809e-17	
      6394.92246	     3.12670e-17	
      6396.82091	     3.69614e-17	
      6398.71936	     3.55601e-17	
      6400.61781	     3.34322e-17	
      6402.51626	     3.41780e-17	
      6404.41471	     3.47268e-17	
      6406.31316	     2.85547e-17	
      6408.21161	     3.43964e-17	
      6410.11006	     3.84769e-17	
      6412.00850	     3.55519e-17	
      6413.90695	     3.18108e-17	
      6415.80540	     3.48617e-17	
      6417.70385	     3.50294e-17	
      6419.60230	     3.34895e-17	
      6421.50075	     3.27100e-17	
      6423.39920	     3.83838e-17	
      6425.29765	     3.88380e-17	
      6427.19610	     3.72765e-17	
      6429.09455	     3.54506e-17	
      6430.99300	     3.47454e-17	
      6432.89145	     4.05174e-17	
      6434.78989	     3.51334e-17	
      6436.68834	     3.18777e-17	
      6438.58679	     3.14445e-17	
      6440.48524	     3.45332e-17	
      6442.38369	     3.92345e-17	
      6444.28214	     3.60497e-17	
      6446.18059	     3.93227e-17	
      6448.07904	     3.32904e-17	
      6449.97749	     3.59028e-17	
      6451.87594	     3.51706e-17	
      6453.77439	     3.34018e-17	
      6455.67284	     3.45408e-17	
      6457.57129	     3.69850e-17	
      6459.46973	     3.76020e-17	
      6461.36818	     3.79234e-17	
      6463.26663	     4.11198e-17	
      6465.16508	     3.37922e-17	
      6467.06353	     3.66462e-17	
      6468.96198	     3.77175e-17	
      6470.86043	     3.83108e-17	
      6472.75888	     3.60115e-17	
      6474.65733	     3.58232e-17	
      6476.55578	     3.65748e-17	
      6478.45423	     3.80203e-17	
      6480.35268	     3.77786e-17	
      6482.25113	     3.77462e-17	
      6484.14957	     3.82085e-17	
      6486.04802	     4.10187e-17	
      6487.94647	     3.92240e-17	
      6489.84492	     3.78476e-17	
      6491.74337	     3.81160e-17	
      6493.64182	     4.07047e-17	
      6495.54027	     4.15578e-17	
      6497.43872	     4.01668e-17	
      6499.33717	     3.80495e-17	
      6501.23562	     4.04653e-17	
      6503.13407	     4.27346e-17	
      6505.03252	     4.05408e-17	
      6506.93097	     3.96212e-17	
      6508.82941	     4.48537e-17	
      6510.72786	     4.39863e-17	
      6512.62631	     4.08285e-17	
      6514.52476	     4.60728e-17	
      6516.42321	     5.14796e-17	
      6518.32166	     5.10706e-17	
      6520.22011	     4.20446e-17	
      6522.11856	     4.70829e-17	
      6524.01701	     4.84438e-17	
      6525.91546	     4.70433e-17	
      6527.81391	     5.29967e-17	
      6529.71236	     5.67500e-17	
      6531.61081	     5.39741e-17	
      6533.50925	     5.40724e-17	
      6535.40770	     5.38009e-17	
      6537.30615	     5.49629e-17	
      6539.20460	     5.83168e-17	
      6541.10305	     5.53787e-17	
      6543.00150	     5.72153e-17	
      6544.89995	     5.46753e-17	
      6546.79840	     5.19490e-17	
      6548.69685	     5.64288e-17	
      6550.59530	     5.69436e-17	
      6552.49375	     5.66640e-17	
      6554.39220	     5.93900e-17	
      6556.29065	     6.03784e-17	
      6558.18909	     6.11169e-17	
      6560.08754	     6.43423e-17	
      6561.98599	     7.30177e-17	
      6563.88444	     7.27334e-17	
      6565.78289	     6.81434e-17	
      6567.68134	     6.00044e-17	
      6569.57979	     5.82438e-17	
      6571.47824	     6.07913e-17	
      6573.37669	     5.51522e-17	
      6575.27514	     5.63633e-17	
      6577.17359	     5.59127e-17	
      6579.07204	     5.57724e-17	
      6580.97049	     5.75202e-17	
      6582.86893	     5.75028e-17	
      6584.76738	     5.86834e-17	
      6586.66583	     4.92839e-17	
      6588.56428	     5.31403e-17	
      6590.46273	     6.26026e-17	
      6592.36118	     6.18149e-17	
      6594.25963	     5.92625e-17	
      6596.15808	     5.69476e-17	
      6598.05653	     6.00668e-17	
      6599.95498	     5.86309e-17	
      6601.85343	     5.84225e-17	
      6603.75188	     6.18559e-17	
      6605.65033	     6.07582e-17	
      6607.54877	     5.78969e-17	
      6609.44722	     5.79028e-17	
      6611.34567	     5.93363e-17	
      6613.24412	     6.09879e-17	
      6615.14257	     6.36210e-17	
      6617.04102	     6.24097e-17	
      6618.93947	     6.36641e-17	
      6620.83792	     6.20844e-17	
      6622.73637	     5.89257e-17	
      6624.63482	     6.22750e-17	
      6626.53327	     6.32280e-17	
      6628.43172	     6.27058e-17	
      6630.33017	     6.22562e-17	
      6632.22861	     6.24555e-17	
      6634.12706	     6.31380e-17	
      6636.02551	     6.33984e-17	
      6637.92396	     6.47292e-17	
      6639.82241	     6.65013e-17	
      6641.72086	     6.07703e-17	
      6643.61931	     6.12143e-17	
      6645.51776	     6.57033e-17	
      6647.41621	     6.25395e-17	
      6649.31466	     6.04148e-17	
      6651.21311	     6.39580e-17	
      6653.11156	     6.43127e-17	
      6655.01001	     6.23691e-17	
      6656.90845	     6.15837e-17	
      6658.80690	     6.82549e-17	
      6660.70535	     5.99386e-17	
      6662.60380	     6.55326e-17	
      6664.50225	     6.85100e-17	
      6666.40070	     6.75765e-17	
      6668.29915	     6.71058e-17	
      6670.19760	     6.74725e-17	
      6672.09605	     6.84981e-17	
      6673.99450	     6.77665e-17	
      6675.89295	     6.79068e-17	
      6677.79140	     6.85558e-17	
      6679.68984	     6.78250e-17	
      6681.58829	     6.95441e-17	
      6683.48674	     7.08152e-17	
      6685.38519	     6.89999e-17	
      6687.28364	     7.38501e-17	
      6689.18209	     7.23148e-17	
      6691.08054	     6.60716e-17	
      6692.97899	     7.33654e-17	
      6694.87744	     7.09876e-17	
      6696.77589	     7.22300e-17	
      6698.67434	     6.89918e-17	
      6700.57279	     6.68805e-17	
      6702.47124	     6.89329e-17	
      6704.36968	     6.91811e-17	
      6706.26813	     6.58003e-17	
      6708.16658	     6.14105e-17	
      6710.06503	     6.32752e-17	
      6711.96348	     6.94978e-17	
      6713.86193	     6.81935e-17	
      6715.76038	     7.06175e-17	
      6717.65883	     7.32459e-17	
      6719.55728	     7.30334e-17	
      6721.45573	     7.62512e-17	
      6723.35418	     7.54681e-17	
      6725.25263	     7.82079e-17	
      6727.15108	     7.54325e-17	
      6729.04952	     7.20609e-17	
      6730.94797	     7.67819e-17	
      6732.84642	     7.24863e-17	
      6734.74487	     7.18018e-17	
      6736.64332	     7.44633e-17	
      6738.54177	     7.72021e-17	
      6740.44022	     7.72532e-17	
      6742.33867	     7.79659e-17	
      6744.23712	     7.34064e-17	
      6746.13557	     7.82688e-17	
      6748.03402	     7.64008e-17	
      6749.93247	     7.57521e-17	
      6751.83092	     7.76457e-17	
      6753.72936	     7.95058e-17	
      6755.62781	     7.91065e-17	
      6757.52626	     8.18054e-17	
      6759.42471	     7.79497e-17	
      6761.32316	     8.09061e-17	
      6763.22161	     7.80146e-17	
      6765.12006	     8.01763e-17	
      6767.01851	     8.28961e-17	
      6768.91696	     8.26252e-17	
      6770.81541	     8.60441e-17	
      6772.71386	     8.17893e-17	
      6774.61231	     8.09340e-17	
      6776.51076	     7.76580e-17	
      6778.40920	     7.68289e-17	
      6780.30765	     7.88443e-17	
      6782.20610	     8.03247e-17	
      6784.10455	     7.61838e-17	
      6786.00300	     7.40105e-17	
      6787.90145	     7.91054e-17	
      6789.79990	     8.23478e-17	
      6791.69835	     7.99466e-17	
      6793.59680	     7.61954e-17	
      6795.49525	     7.86603e-17	
      6797.39370	     7.94787e-17	
      6799.29215	     7.63804e-17	
      6801.19060	     7.47005e-17	
      6803.08904	     7.71226e-17	
      6804.98749	     7.83941e-17	
      6806.88594	     7.40054e-17	
      6808.78439	     6.97629e-17	
      6810.68284	     7.40097e-17	
      6812.58129	     6.90332e-17	
      6814.47974	     7.47065e-17	
      6816.37819	     7.37475e-17	
      6818.27664	     7.51893e-17	
      6820.17509	     7.30519e-17	
      6822.07354	     7.51968e-17	
      6823.97199	     7.50294e-17	
      6825.87044	     7.02220e-17	
      6827.76888	     7.11897e-17	
      6829.66733	     7.30253e-17	
      6831.56578	     7.43383e-17	
      6833.46423	     7.47913e-17	
      6835.36268	     6.85456e-17	
      6837.26113	     6.59682e-17	
      6839.15958	     7.16820e-17	
      6841.05803	     6.98802e-17	
      6842.95648	     7.02741e-17	
      6844.85493	     6.75086e-17	
      6846.75338	     6.82991e-17	
      6848.65183	     6.70700e-17	
      6850.55028	     6.90649e-17	
      6852.44872	     6.65766e-17	
      6854.34717	     6.80666e-17	
      6856.24562	     6.52142e-17	
      6858.14407	     6.63103e-17	
      6860.04252	     6.82444e-17	
      6861.94097	     7.02126e-17	
      6863.83942	     6.89817e-17	
      6865.73787	     6.45079e-17	
      6867.63632	     5.79844e-17	
      6869.53477	     5.20343e-17	
      6871.43322	     5.09829e-17	
      6873.33167	     5.13907e-17	
      6875.23012	     5.54547e-17	
      6877.12856	     5.72265e-17	
      6879.02701	     5.78472e-17	
      6880.92546	     6.02862e-17	
      6882.82391	     6.40316e-17	
      6884.72236	     6.38947e-17	
      6886.62081	     5.99819e-17	
      6888.51926	     5.59593e-17	
      6890.41771	     5.39469e-17	
      6892.31616	     5.23600e-17	
      6894.21461	     5.40722e-17	
      6896.11306	     5.81959e-17	
      6898.01151	     5.70238e-17	
      6899.90995	     5.38934e-17	
      6901.80840	     5.71225e-17	
      6903.70685	     5.70078e-17	
      6905.60530	     5.81227e-17	
      6907.50375	     6.13818e-17	
      6909.40220	     6.13323e-17	
      6911.30065	     6.16239e-17	
      6913.19910	     6.19452e-17	
      6915.09755	     6.53947e-17	
      6916.99600	     6.09042e-17	
      6918.89445	     5.73286e-17	
      6920.79290	     6.09223e-17	
      6922.69135	     6.34564e-17	
      6924.58979	     6.71610e-17	
      6926.48824	     7.20964e-17	
      6928.38669	     7.16071e-17	
      6930.28514	     7.31653e-17	
      6932.18359	     7.30462e-17	
      6934.08204	     7.50204e-17	
      6935.98049	     7.47176e-17	
      6937.87894	     7.17640e-17	
      6939.77739	     7.11611e-17	
      6941.67584	     7.61474e-17	
      6943.57429	     7.97708e-17	
      6945.47274	     8.10087e-17	
      6947.37119	     8.06271e-17	
      6949.26963	     8.18625e-17	
      6951.16808	     8.28416e-17	
      6953.06653	     7.78499e-17	
      6954.96498	     7.15799e-17	
      6956.86343	     7.61900e-17	
      6958.76188	     7.88312e-17	
      6960.66033	     7.87127e-17	
      6962.55878	     7.87361e-17	
      6964.45723	     8.16405e-17	
      6966.35568	     7.81496e-17	
      6968.25413	     7.68571e-17	
      6970.15258	     7.88088e-17	
      6972.05103	     8.09964e-17	
      6973.94947	     7.85136e-17	
      6975.84792	     8.00990e-17	
      6977.74637	     8.15645e-17	
      6979.64482	     8.13958e-17	
      6981.54327	     8.50289e-17	
      6983.44172	     7.80623e-17	
      6985.34017	     7.95184e-17	
      6987.23862	     8.45000e-17	
      6989.13707	     8.34126e-17	
      6991.03552	     7.87968e-17	
      6992.93397	     7.94982e-17	
      6994.83242	     7.90690e-17	
      6996.73087	     7.83640e-17	
      6998.62931	     8.19491e-17	
      7000.52776	     8.43241e-17	
      7002.42621	     8.84238e-17	
      7004.32466	     8.63911e-17	
      7006.22311	     8.53923e-17	
      7008.12156	     8.99541e-17	
      7010.02001	     9.08136e-17	
      7011.91846	     8.88856e-17	
      7013.81691	     9.39843e-17	
      7015.71536	     9.42123e-17	
      7017.61381	     9.25724e-17	
      7019.51226	     9.34708e-17	
      7021.41071	     9.64316e-17	
      7023.30915	     9.96151e-17	
      7025.20760	     1.01031e-16	
      7027.10605	     1.02132e-16	
      7029.00450	     1.02300e-16	
      7030.90295	     1.02594e-16	
      7032.80140	     1.04311e-16	
      7034.69985	     1.07806e-16	
      7036.59830	     1.10283e-16	
      7038.49675	     1.15680e-16	
      7040.39520	     1.15920e-16	
      7042.29365	     1.15232e-16	
      7044.19210	     1.13013e-16	
      7046.09055	     1.09085e-16	
      7047.98899	     1.15297e-16	
      7049.88744	     1.14719e-16	
      7051.78589	     1.14373e-16	
      7053.68434	     1.14790e-16	
      7055.58279	     1.10636e-16	
      7057.48124	     1.07962e-16	
      7059.37969	     1.09060e-16	
      7061.27814	     1.10871e-16	
      7063.17659	     1.05420e-16	
      7065.07504	     1.01090e-16	
      7066.97349	     1.08499e-16	
      7068.87194	     1.14848e-16	
      7070.77039	     1.10921e-16	
      7072.66883	     1.09029e-16	
      7074.56728	     1.12332e-16	
      7076.46573	     1.15371e-16	
      7078.36418	     1.14495e-16	
      7080.26263	     1.10664e-16	
      7082.16108	     1.14246e-16	
      7084.05953	     1.15200e-16	
      7085.95798	     1.08680e-16	
      7087.85643	     1.10213e-16	
      7089.75488	     1.10261e-16	
      7091.65333	     1.13868e-16	
      7093.55178	     1.11505e-16	
      7095.45023	     1.12231e-16	
      7097.34867	     1.17274e-16	
      7099.24712	     1.11921e-16	
      7101.14557	     1.14795e-16	
      7103.04402	     1.14954e-16	
      7104.94247	     1.17875e-16	
      7106.84092	     1.18004e-16	
      7108.73937	     1.16656e-16	
      7110.63782	     1.14894e-16	
      7112.53627	     1.15793e-16	
      7114.43472	     1.11973e-16	
      7116.33317	     1.14967e-16	
      7118.23162	     1.18257e-16	
      7120.13007	     1.17422e-16	
      7122.02851	     1.15281e-16	
      7123.92696	     1.18629e-16	
      7125.82541	     1.17464e-16	
      7127.72386	     1.16152e-16	
      7129.62231	     1.14716e-16	
      7131.52076	     1.13901e-16	
      7133.41921	     1.13875e-16	
      7135.31766	     1.12438e-16	
      7137.21611	     1.17145e-16	
      7139.11456	     1.15463e-16	
      7141.01301	     1.13183e-16	
      7142.91146	     1.17287e-16	
      7144.80990	     1.21105e-16	
      7146.70835	     1.26772e-16	
      7148.60680	     1.29757e-16	
      7150.50525	     1.24222e-16	
      7152.40370	     1.26407e-16	
      7154.30215	     1.25194e-16	
      7156.20060	     1.19433e-16	
      7158.09905	     1.17059e-16	
      7159.99750	     1.22448e-16	
      7161.89595	     1.23785e-16	
      7163.79440	     1.22930e-16	
      7165.69285	     1.29601e-16	
      7167.59130	     1.26913e-16	
      7169.48974	     1.25010e-16	
      7171.38819	     1.27038e-16	
      7173.28664	     1.29324e-16	
      7175.18509	     1.29473e-16	
      7177.08354	     1.29683e-16	
      7178.98199	     1.27973e-16	
      7180.88044	     1.29629e-16	
      7182.77889	     1.31931e-16	
      7184.67734	     1.34605e-16	
      7186.57579	     1.33087e-16	
      7188.47424	     1.36625e-16	
      7190.37269	     1.37412e-16	
      7192.27114	     1.36087e-16	
      7194.16958	     1.35230e-16	
      7196.06803	     1.35894e-16	
      7197.96648	     1.38269e-16	
      7199.86493	     1.32502e-16	
      7201.76338	     1.33356e-16	
      7203.66183	     1.34498e-16	
      7205.56028	     1.35908e-16	
      7207.45873	     1.37850e-16	
      7209.35718	     1.39271e-16	
      7211.25563	     1.44040e-16	
      7213.15408	     1.41368e-16	
      7215.05253	     1.40718e-16	
      7216.95098	     1.40043e-16	
      7218.84942	     1.44738e-16	
      7220.74787	     1.44703e-16	
      7222.64632	     1.45179e-16	
      7224.54477	     1.47812e-16	
      7226.44322	     1.45811e-16	
      7228.34167	     1.44969e-16	
      7230.24012	     1.48681e-16	
      7232.13857	     1.42294e-16	
      7234.03702	     1.42193e-16	
      7235.93547	     1.46682e-16	
      7237.83392	     1.48420e-16	
      7239.73237	     1.46930e-16	
      7241.63082	     1.43259e-16	
      7243.52926	     1.43941e-16	
      7245.42771	     1.47820e-16	
      7247.32616	     1.53257e-16	
      7249.22461	     1.54948e-16	
      7251.12306	     1.53085e-16	
      7253.02151	     1.53623e-16	
      7254.91996	     1.57669e-16	
      7256.81841	     1.57797e-16	
      7258.71686	     1.55062e-16	
      7260.61531	     1.61377e-16	
      7262.51376	     1.62924e-16	
      7264.41221	     1.61646e-16	
      7266.31066	     1.63289e-16	
      7268.20910	     1.57259e-16	
      7270.10755	     1.58578e-16	
      7272.00600	     1.61843e-16	
      7273.90445	     1.62849e-16	
      7275.80290	     1.63980e-16	
      7277.70135	     1.58914e-16	
      7279.59980	     1.55955e-16	
      7281.49825	     1.59649e-16	
      7283.39670	     1.67214e-16	
      7285.29515	     1.67029e-16	
      7287.19360	     1.60658e-16	
      7289.09205	     1.60253e-16	
      7290.99050	     1.63345e-16	
      7292.88894	     1.68413e-16	
      7294.78739	     1.68752e-16	
      7296.68584	     1.72695e-16	
      7298.58429	     1.67905e-16	
      7300.48274	     1.71365e-16	
      7302.38119	     1.73855e-16	
      7304.27964	     1.74279e-16	
      7306.17809	     1.76626e-16	
      7308.07654	     1.78815e-16	
      7309.97499	     1.72345e-16	
      7311.87344	     1.78331e-16	
      7313.77189	     1.82507e-16	
      7315.67034	     1.81212e-16	
      7317.56878	     1.84208e-16	
      7319.46723	     1.84915e-16	
      7321.36568	     1.83052e-16	
      7323.26413	     1.84400e-16	
      7325.16258	     1.80449e-16	
      7327.06103	     1.73011e-16	
      7328.95948	     1.71396e-16	
      7330.85793	     1.69593e-16	
      7332.75638	     1.74896e-16	
      7334.65483	     1.81820e-16	
      7336.55328	     1.89018e-16	
      7338.45173	     1.87016e-16	
      7340.35018	     1.84900e-16	
      7342.24862	     1.84702e-16	
      7344.14707	     1.78828e-16	
      7346.04552	     1.79092e-16	
      7347.94397	     1.78634e-16	
      7349.84242	     1.77817e-16	
      7351.74087	     1.79659e-16	
      7353.63932	     1.72273e-16	
      7355.53777	     1.68897e-16	
      7357.43622	     1.74509e-16	
      7359.33467	     1.75777e-16	
      7361.23312	     1.71666e-16	
      7363.13157	     1.76356e-16	
      7365.03002	     1.82023e-16	
      7366.92846	     1.85502e-16	
      7368.82691	     1.89239e-16	
      7370.72536	     1.85857e-16	
      7372.62381	     1.79308e-16	
      7374.52226	     1.77834e-16	
      7376.42071	     1.74763e-16	
      7378.31916	     1.71244e-16	
      7380.21761	     1.72080e-16	
      7382.11606	     1.74665e-16	
      7384.01451	     1.76916e-16	
      7385.91296	     1.82739e-16	
      7387.81141	     1.77560e-16	
      7389.70985	     1.78625e-16	
      7391.60830	     1.75846e-16	
      7393.50675	     1.73175e-16	
      7395.40520	     1.70430e-16	
      7397.30365	     1.70732e-16	
      7399.20210	     1.71055e-16	
      7401.10055	     1.78721e-16	
      7402.99900	     1.77501e-16	
      7404.89745	     1.71041e-16	
      7406.79590	     1.70548e-16	
      7408.69435	     1.75206e-16	
      7410.59280	     1.76067e-16	
      7412.49125	     1.75795e-16	
      7414.38969	     1.74009e-16	
      7416.28814	     1.70753e-16	
      7418.18659	     1.68973e-16	
      7420.08504	     1.68359e-16	
      7421.98349	     1.68090e-16	
      7423.88194	     1.68694e-16	
      7425.78039	     1.68569e-16	
      7427.67884	     1.73702e-16	
      7429.57729	     1.72188e-16	
      7431.47574	     1.71022e-16	
      7433.37419	     1.67021e-16	
      7435.27264	     1.66988e-16	
      7437.17109	     1.68511e-16	
      7439.06953	     1.70290e-16	
      7440.96798	     1.66513e-16	
      7442.86643	     1.68366e-16	
      7444.76488	     1.62358e-16	
      7446.66333	     1.64379e-16	
      7448.56178	     1.58050e-16	
      7450.46023	     1.61709e-16	
      7452.35868	     1.67714e-16	
      7454.25713	     1.66604e-16	
      7456.15558	     1.68819e-16	
      7458.05403	     1.65056e-16	
      7459.95248	     1.71120e-16	
      7461.85093	     1.70078e-16	
      7463.74937	     1.69096e-16	
      7465.64782	     1.71788e-16	
      7467.54627	     1.70813e-16	
      7469.44472	     1.68151e-16	
      7471.34317	     1.64606e-16	
      7473.24162	     1.64351e-16	
      7475.14007	     1.62691e-16	
      7477.03852	     1.65316e-16	
      7478.93697	     1.65890e-16	
      7480.83542	     1.65424e-16	
      7482.73387	     1.66576e-16	
      7484.63232	     1.69695e-16	
      7486.53077	     1.73681e-16	
      7488.42921	     1.68594e-16	
      7490.32766	     1.64285e-16	
      7492.22611	     1.66214e-16	
      7494.12456	     1.66648e-16	
      7496.02301	     1.70128e-16	
      7497.92146	     1.71869e-16	
      7499.81991	     1.72011e-16	
      7501.71836	     1.68260e-16	
      7503.61681	     1.69375e-16	
      7505.51526	     1.63230e-16	
      7507.41371	     1.65775e-16	
      7509.31216	     1.70726e-16	
      7511.21061	     1.73609e-16	
      7513.10905	     1.70074e-16	
      7515.00750	     1.72214e-16	
      7516.90595	     1.70930e-16	
      7518.80440	     1.69750e-16	
      7520.70285	     1.63075e-16	
      7522.60130	     1.64538e-16	
      7524.49975	     1.66961e-16	
      7526.39820	     1.65052e-16	
      7528.29665	     1.64644e-16	
      7530.19510	     1.73565e-16	
      7532.09355	     1.71720e-16	
      7533.99200	     1.66305e-16	
      7535.89045	     1.68158e-16	
      7537.78889	     1.74195e-16	
      7539.68734	     1.75197e-16	
      7541.58579	     1.72662e-16	
      7543.48424	     1.67058e-16	
      7545.38269	     1.64007e-16	
      7547.28114	     1.67643e-16	
      7549.17959	     1.67625e-16	
      7551.07804	     1.68252e-16	
      7552.97649	     1.64384e-16	
      7554.87494	     1.65860e-16	
      7556.77339	     1.67635e-16	
      7558.67184	     1.69178e-16	
      7560.57029	     1.68818e-16	
      7562.46873	     1.65907e-16	
      7564.36718	     1.65531e-16	
      7566.26563	     1.67040e-16	
      7568.16408	     1.63957e-16	
      7570.06253	     1.63523e-16	
      7571.96098	     1.64179e-16	
      7573.85943	     1.62140e-16	
      7575.75788	     1.59349e-16	
      7577.65633	     1.59837e-16	
      7579.55478	     1.62316e-16	
      7581.45323	     1.60337e-16	
      7583.35168	     1.58423e-16	
      7585.25013	     1.54348e-16	
      7587.14857	     1.47471e-16	
      7589.04702	     1.44169e-16	
      7590.94547	     1.38101e-16	
      7592.84392	     1.18408e-16	
      7594.74237	     9.11851e-17	
      7596.64082	     7.43703e-17	
      7598.53927	     6.36333e-17	
      7600.43772	     5.31556e-17	
      7602.33617	     4.72262e-17	
      7604.23462	     4.40976e-17	
      7606.13307	     4.27567e-17	
      7608.03152	     4.88346e-17	
      7609.92996	     5.26650e-17	
      7611.82841	     6.34578e-17	
      7613.72686	     7.56700e-17	
      7615.62531	     9.00020e-17	
      7617.52376	     1.02764e-16	
      7619.42221	     9.98871e-17	
      7621.32066	     8.61477e-17	
      7623.21911	     7.34904e-17	
      7625.11756	     6.40843e-17	
      7627.01601	     6.32981e-17	
      7628.91446	     5.86937e-17	
      7630.81291	     5.64180e-17	
      7632.71136	     5.53205e-17	
      7634.60980	     5.46505e-17	
      7636.50825	     5.30683e-17	
      7638.40670	     5.10700e-17	
      7640.30515	     4.97822e-17	
      7642.20360	     4.67890e-17	
      7644.10205	     4.40837e-17	
      7646.00050	     4.05002e-17	
      7647.89895	     4.14924e-17	
      7649.79740	     3.71727e-17	
      7651.69585	     3.21115e-17	
      7653.59430	     2.73703e-17	
      7655.49275	     2.38928e-17	
      7657.39120	     2.22003e-17	
      7659.28964	     1.70472e-17	
      7661.18809	     1.18633e-17	
      7663.08654	     1.06267e-17	
      7664.98499	     9.07410e-18	
      7666.88344	     1.33386e-17	
      7668.78189	     1.86900e-17	
      7670.68034	     2.11383e-17	
      7672.57879	     2.96210e-17	
      7674.47724	     3.20908e-17	
      7676.37569	     3.64899e-17	
      7678.27414	     4.08364e-17	
      7680.17259	     4.68839e-17	
      7682.07104	     5.01010e-17	
      7683.96948	     5.03777e-17	
      7685.86793	     4.63327e-17	
      7687.76638	     4.29434e-17	
      7689.66483	     3.76952e-17	
      7691.56328	     3.30845e-17	
      7693.46173	     2.19371e-17	
      7695.36018	     2.01996e-17	
      7697.25863	     1.27714e-17	
      7699.15708	     1.32853e-17	
      7701.05553	     1.85549e-17	
      7702.95398	     2.52679e-17	
      7704.85243	     3.58798e-17	
      7706.75088	     4.09898e-17	
      7708.64932	     4.98103e-17	
      7710.54777	     6.08573e-17	
      7712.44622	     6.50793e-17	
      7714.34467	     7.17012e-17	
      7716.24312	     8.36603e-17	
      7718.14157	     9.20239e-17	
      7720.04002	     8.88455e-17	
      7721.93847	     9.57873e-17	
      7723.83692	     9.87252e-17	
      7725.73537	     1.03753e-16	
      7727.63382	     1.05735e-16	
      7729.53227	     1.08606e-16	
      7731.43072	     1.10242e-16	
      7733.32916	     1.16091e-16	
      7735.22761	     1.18929e-16	
      7737.12606	     1.20189e-16	
      7739.02451	     1.30953e-16	
      7740.92296	     1.33012e-16	
      7742.82141	     1.32257e-16	
      7744.71986	     1.28609e-16	
      7746.61831	     1.31814e-16	
      7748.51676	     1.32516e-16	
      7750.41521	     1.36907e-16	
      7752.31366	     1.41802e-16	
      7754.21211	     1.41123e-16	
      7756.11056	     1.44359e-16	
      7758.00900	     1.50963e-16	
      7759.90745	     1.45547e-16	
      7761.80590	     1.45181e-16	
      7763.70435	     1.49234e-16	
      7765.60280	     1.52496e-16	
      7767.50125	     1.60263e-16	
      7769.39970	     1.68865e-16	
      7771.29815	     1.70764e-16	
      7773.19660	     1.61810e-16	
      7775.09505	     1.51019e-16	
      7776.99350	     1.50159e-16	
      7778.89195	     1.53719e-16	
      7780.79040	     1.60514e-16	
      7782.68884	     1.62228e-16	
      7784.58729	     1.57155e-16	
      7786.48574	     1.56373e-16	
      7788.38419	     1.61228e-16	
      7790.28264	     1.65930e-16	
      7792.18109	     1.64924e-16	
      7794.07954	     1.51040e-16	
      7795.97799	     1.27317e-16	
      7797.87644	     1.02295e-16	
      7799.77489	     9.76186e-17	
      7801.67334	     1.28262e-16	
      7803.57179	     1.63437e-16	
      7805.47024	     1.78537e-16	
      7807.36868	     1.78613e-16	
      7809.26713	     1.75099e-16	
      7811.16558	     1.77849e-16	
      7813.06403	     1.81849e-16	
      7814.96248	     1.80481e-16	
      7816.86093	     1.80893e-16	
      7818.75938	     1.71091e-16	
      7820.65783	     1.71446e-16	
      7822.55628	     1.78834e-16	
      7824.45473	     1.78993e-16	
      7826.35318	     1.80841e-16	
      7828.25163	     1.84041e-16	
      7830.15008	     1.84341e-16	
      7832.04852	     1.85446e-16	
      7833.94697	     1.94871e-16	
      7835.84542	     1.92743e-16	
      7837.74387	     1.91562e-16	
      7839.64232	     1.88746e-16	
      7841.54077	     1.95716e-16	
      7843.43922	     2.00560e-16	
      7845.33767	     2.07014e-16	
      7847.23612	     2.12445e-16	
      7849.13457	     2.07606e-16	
      7851.03302	     2.00359e-16	
      7852.93147	     1.95343e-16	
      7854.82991	     1.91756e-16	
      7856.72836	     1.98336e-16	
      7858.62681	     2.07435e-16	
      7860.52526	     2.11336e-16	
      7862.42371	     2.13775e-16	
      7864.32216	     2.12781e-16	
      7866.22061	     2.07224e-16	
      7868.11906	     1.98541e-16	
      7870.01751	     1.90057e-16	
      7871.91596	     1.91160e-16	
      7873.81441	     1.97256e-16	
      7875.71286	     2.05378e-16	
      7877.61131	     2.17239e-16	
      7879.50975	     2.22332e-16	
      7881.40820	     2.22412e-16	
      7883.30665	     2.21640e-16	
      7885.20510	     2.15419e-16	
      7887.10355	     2.07848e-16	
      7889.00200	     2.11537e-16	
      7890.90045	     2.18229e-16	
      7892.79890	     2.24268e-16	
      7894.69735	     2.22366e-16	
      7896.59580	     2.12099e-16	
      7898.49425	     2.14259e-16	
      7900.39270	     2.21691e-16	
      7902.29115	     2.21959e-16	
      7904.18959	     2.16807e-16	
      7906.08804	     2.09590e-16	
      7907.98649	     2.05425e-16	
      7909.88494	     2.10035e-16	
      7911.78339	     2.16854e-16	
      7913.68184	     2.25969e-16	
      7915.58029	     2.22314e-16	
      7917.47874	     2.28233e-16	
      7919.37719	     2.24052e-16	
      7921.27564	     2.22862e-16	
      7923.17409	     2.14801e-16	
      7925.07254	     2.11517e-16	
      7926.97099	     2.14176e-16	
      7928.86943	     2.23973e-16	
      7930.76788	     2.35346e-16	
      7932.66633	     2.39689e-16	
      7934.56478	     2.36376e-16	
      7936.46323	     2.27442e-16	
      7938.36168	     2.23657e-16	
      7940.26013	     2.21671e-16	
      7942.15858	     2.01608e-16	
      7944.05703	     1.67351e-16	
      7945.95548	     1.44639e-16	
      7947.85393	     1.61039e-16	
      7949.75238	     2.00509e-16	
      7951.65083	     2.26804e-16	
      7953.54927	     2.41477e-16	
      7955.44772	     2.44156e-16	
      7957.34617	     2.36679e-16	
      7959.24462	     2.31918e-16	
      7961.14307	     2.30662e-16	
      7963.04152	     2.38955e-16	
      7964.93997	     2.42015e-16	
      7966.83842	     2.41443e-16	
      7968.73687	     2.47520e-16	
      7970.63532	     2.48895e-16	
      7972.53377	     2.42421e-16	
      7974.43222	     2.41003e-16	
      7976.33067	     2.46339e-16	
      7978.22911	     2.49319e-16	
      7980.12756	     2.44976e-16	
      7982.02601	     2.41025e-16	
      7983.92446	     2.38259e-16	
      7985.82291	     2.32654e-16	
      7987.72136	     2.32291e-16	
      7989.61981	     2.38430e-16	
      7991.51826	     2.44950e-16	
      7993.41671	     2.44403e-16	
      7995.31516	     2.44534e-16	
      7997.21361	     2.56046e-16	
      7999.11206	     2.60089e-16	
      8001.01051	     2.52766e-16	
      8002.90895	     2.51699e-16	
      8004.80740	     2.56489e-16	
      8006.70585	     2.62371e-16	
      8008.60430	     2.63952e-16	
      8010.50275	     2.62764e-16	
      8012.40120	     2.59959e-16	
      8014.29965	     2.64074e-16	
      8016.19810	     2.65562e-16	
      8018.09655	     2.68133e-16	
      8019.99500	     2.68758e-16	
      8021.89345	     2.73313e-16	
      8023.79190	     2.84248e-16	
      8025.69035	     2.97596e-16	
      8027.58879	     2.93570e-16	
      8029.48724	     2.93854e-16	
      8031.38569	     2.93194e-16	
      8033.28414	     2.91466e-16	
      8035.18259	     2.82932e-16	
      8037.08104	     2.83893e-16	
      8038.97949	     2.81447e-16	
      8040.87794	     2.90214e-16	
      8042.77639	     2.94476e-16	
      8044.67484	     2.94483e-16	
      8046.57329	     2.99926e-16	
      8048.47174	     3.04525e-16	
      8050.37019	     3.09499e-16	
      8052.26863	     3.20804e-16	
      8054.16708	     3.17242e-16	
      8056.06553	     3.17943e-16	
      8057.96398	     3.15309e-16	
      8059.86243	     3.13611e-16	
      8061.76088	     3.07079e-16	
      8063.65933	     3.10023e-16	
      8065.55778	     3.14039e-16	
      8067.45623	     3.22514e-16	
      8069.35468	     3.32073e-16	
      8071.25313	     3.32073e-16	
      8073.15158	     3.38275e-16	
      8075.05003	     3.40775e-16	
      8076.94847	     3.45178e-16	
      8078.84692	     3.47768e-16	
      8080.74537	     3.52554e-16	
      8082.64382	     3.58557e-16	
      8084.54227	     3.45870e-16	
      8086.44072	     3.41615e-16	
      8088.33917	     3.45689e-16	
      8090.23762	     3.55070e-16	
      8092.13607	     3.55440e-16	
      8094.03452	     3.52497e-16	
      8095.93297	     3.48192e-16	
      8097.83142	     3.48672e-16	
      8099.72986	     3.43014e-16	
      8101.62831	     3.43739e-16	
      8103.52676	     3.61206e-16	
      8105.42521	     3.66403e-16	
      8107.32366	     3.69575e-16	
      8109.22211	     3.72984e-16	
      8111.12056	     3.72115e-16	
      8113.01901	     3.65816e-16	
      8114.91746	     3.64075e-16	
      8116.81591	     3.74018e-16	
      8118.71436	     3.82723e-16	
      8120.61281	     3.86598e-16	
      8122.51126	     3.87285e-16	
      8124.40970	     3.97048e-16	
      8126.30815	     4.06478e-16	
      8128.20660	     4.01604e-16	
      8130.10505	     3.93829e-16	
      8132.00350	     3.96910e-16	
      8133.90195	     4.03405e-16	
      8135.80040	     4.07907e-16	
      8137.69885	     4.09066e-16	
      8139.59730	     3.96542e-16	
      8141.49575	     3.81636e-16	
      8143.39420	     3.77285e-16	
      8145.29265	     3.75371e-16	
      8147.19110	     3.79790e-16	
      8149.08954	     3.84621e-16	
      8150.98799	     3.93679e-16	
      8152.88644	     3.97700e-16	
      8154.78489	     3.96472e-16	
      8156.68334	     4.00084e-16	
      8158.58179	     3.98048e-16	
      8160.48024	     4.01039e-16	
      8162.37869	     4.07912e-16	
      8164.27714	     4.15321e-16	
      8166.17559	     4.30180e-16	
      8168.07404	     4.31307e-16	
      8169.97249	     4.33239e-16	
      8171.87094	     4.33307e-16	
      8173.76938	     4.27415e-16	
      8175.66783	     4.18149e-16	
      8177.56628	     3.89820e-16	
      8179.46473	     3.51609e-16	
      8181.36318	     3.21996e-16	
      8183.26163	     3.37337e-16	
      8185.16008	     3.71884e-16	
      8187.05853	     3.94320e-16	
      8188.95698	     3.82358e-16	
      8190.85543	     3.43268e-16	
      8192.75388	     3.03327e-16	
      8194.65233	     3.03020e-16	
      8196.55078	     3.38617e-16	
      8198.44922	     3.73435e-16	
      8200.34767	     3.95871e-16	
      8202.24612	     4.12898e-16	
      8204.14457	     4.12341e-16	
      8206.04302	     4.11863e-16	
      8207.94147	     4.30737e-16	
      8209.83992	     4.31646e-16	
      8211.73837	     4.22342e-16	
      8213.63682	     4.20851e-16	
      8215.53527	     4.22973e-16	
      8217.43372	     4.30256e-16	
      8219.33217	     4.45829e-16	
      8221.23062	     4.51027e-16	
      8223.12906	     4.53970e-16	
      8225.02751	     4.49925e-16	
      8226.92596	     4.46503e-16	
      8228.82441	     4.58228e-16	
      8230.72286	     4.49632e-16	
      8232.62131	     4.40720e-16	
      8234.51976	     4.51864e-16	
      8236.41821	     4.67070e-16	
      8238.31666	     4.75735e-16	
      8240.21511	     4.74836e-16	
      8242.11356	     4.78200e-16	
      8244.01201	     4.80259e-16	
      8245.91046	     4.78062e-16	
      8247.80890	     4.81952e-16	
      8249.70735	     4.73227e-16	
      8251.60580	     4.58522e-16	
      8253.50425	     4.49690e-16	
      8255.40270	     4.43912e-16	
      8257.30115	     4.63079e-16	
      8259.19960	     4.77473e-16	
      8261.09805	     4.76170e-16	
      8262.99650	     4.78273e-16	
      8264.89495	     4.75731e-16	
      8266.79340	     4.72453e-16	
      8268.69185	     4.70403e-16	
      8270.59030	     4.64574e-16	
      8272.48874	     4.63980e-16	
      8274.38719	     4.63276e-16	
      8276.28564	     4.65633e-16	
      8278.18409	     4.65986e-16	
      8280.08254	     4.59940e-16	
      8281.98099	     4.56426e-16	
      8283.87944	     4.61413e-16	
      8285.77789	     4.56222e-16	
      8287.67634	     4.45609e-16	
      8289.57479	     4.43524e-16	
      8291.47324	     4.52319e-16	
      8293.37169	     4.51694e-16	
      8295.27014	     4.46219e-16	
      8297.16858	     4.47626e-16	
      8299.06703	     4.47210e-16	
      8300.96548	     4.47697e-16	
      8302.86393	     4.46043e-16	
      8304.76238	     4.44766e-16	
      8306.66083	     4.47378e-16	
      8308.55928	     4.54759e-16	
      8310.45773	     4.50358e-16	
      8312.35618	     4.56142e-16	
      8314.25463	     4.64116e-16	
      8316.15308	     4.71877e-16	
      8318.05153	     4.78676e-16	
      8319.94997	     4.81359e-16	
      8321.84842	     4.84665e-16	
      8323.74687	     4.82506e-16	
      8325.64532	     4.71431e-16	
      8327.54377	     4.66142e-16	
      8329.44222	     4.80020e-16	
      8331.34067	     4.86007e-16	
      8333.23912	     4.77864e-16	
      8335.13757	     4.75791e-16	
      8337.03602	     4.85043e-16	
      8338.93447	     4.88601e-16	
      8340.83292	     4.89569e-16	
      8342.73137	     4.83198e-16	
      8344.62981	     4.79193e-16	
      8346.52826	     4.83753e-16	
      8348.42671	     4.87227e-16	
      8350.32516	     4.87703e-16	
      8352.22361	     4.86267e-16	
      8354.12206	     4.85707e-16	
      8356.02051	     4.84932e-16	
      8357.91896	     4.91329e-16	
      8359.81741	     4.99083e-16	
      8361.71586	     5.02843e-16	
      8363.61431	     5.12427e-16	
      8365.51276	     5.23473e-16	
      8367.41121	     5.28328e-16	
      8369.30965	     5.26704e-16	
      8371.20810	     5.06594e-16	
      8373.10655	     4.95029e-16	
      8375.00500	     5.01022e-16	
      8376.90345	     5.11069e-16	
      8378.80190	     5.17935e-16	
      8380.70035	     5.12532e-16	
      8382.59880	     5.11231e-16	
      8384.49725	     4.96556e-16	
      8386.39570	     4.89975e-16	
      8388.29415	     4.89977e-16	
      8390.19260	     4.97741e-16	
      8392.09105	     4.96404e-16	
      8393.98949	     4.95496e-16	
      8395.88794	     5.13532e-16	
      8397.78639	     5.24599e-16	
      8399.68484	     5.31522e-16	
      8401.58329	     5.29629e-16	
      8403.48174	     5.28042e-16	
      8405.38019	     5.30526e-16	
      8407.27864	     5.28639e-16	
      8409.17709	     5.25855e-16	
      8411.07554	     5.32147e-16	
      8412.97399	     5.35293e-16	
      8414.87244	     5.46073e-16	
      8416.77089	     5.30133e-16	
      8418.66933	     5.12682e-16	
      8420.56778	     5.24547e-16	
      8422.46623	     5.33344e-16	
      8424.36468	     5.28640e-16	
      8426.26313	     5.21788e-16	
      8428.16158	     5.23386e-16	
      8430.06003	     5.12671e-16	
      8431.95848	     4.91266e-16	
      8433.85693	     4.77004e-16	
      8435.75538	     4.73667e-16	
      8437.65383	     4.73612e-16	
      8439.55228	     4.65385e-16	
      8441.45073	     4.53381e-16	
      8443.34917	     4.46335e-16	
      8445.24762	     4.47710e-16	
      8447.14607	     4.50100e-16	
      8449.04452	     4.45561e-16	
      8450.94297	     4.32473e-16	
      8452.84142	     4.22203e-16	
      8454.73987	     4.23564e-16	
      8456.63832	     4.28481e-16	
      8458.53677	     4.30784e-16	
      8460.43522	     4.31771e-16	
      8462.33367	     4.33062e-16	
      8464.23212	     4.33854e-16	
      8466.13057	     4.29181e-16	
      8468.02901	     4.35471e-16	
      8469.92746	     4.36714e-16	
      8471.82591	     4.37409e-16	
      8473.72436	     4.49184e-16	
      8475.62281	     4.43818e-16	
      8477.52126	     4.31279e-16	
      8479.41971	     4.23694e-16	
      8481.31816	     4.21802e-16	
      8483.21661	     4.24081e-16	
      8485.11506	     4.33730e-16	
      8487.01351	     4.41030e-16	
      8488.91196	     4.41795e-16	
      8490.81041	     4.48441e-16	
      8492.70885	     4.50907e-16	
      8494.60730	     4.49117e-16	
      8496.50575	     4.43162e-16	
      8498.40420	     4.40687e-16	
      8500.30265	     4.42366e-16	
      8502.20110	     4.43700e-16	
      8504.09955	     4.42760e-16	
      8505.99800	     4.45115e-16	
      8507.89645	     4.45049e-16	
      8509.79490	     4.47001e-16	
      8511.69335	     4.49603e-16	
      8513.59180	     4.43788e-16	
      8515.49025	     4.17746e-16	
      8517.38869	     3.67720e-16	
      8519.28714	     3.41128e-16	
      8521.18559	     3.58355e-16	
      8523.08404	     4.10404e-16	
      8524.98249	     4.50656e-16	
      8526.88094	     4.64362e-16	
      8528.77939	     4.67762e-16	
      8530.67784	     4.72085e-16	
      8532.57629	     4.70685e-16	
      8534.47474	     4.63515e-16	
      8536.37319	     4.61090e-16	
      8538.27164	     4.65853e-16	
      8540.17009	     4.66756e-16	
      8542.06853	     4.70026e-16	
      8543.96698	     4.78611e-16	
      8545.86543	     4.86518e-16	
      8547.76388	     4.92086e-16	
      8549.66233	     4.93790e-16	
      8551.56078	     4.97289e-16	
      8553.45923	     5.05041e-16	
      8555.35768	     5.10400e-16	
      8557.25613	     4.97970e-16	
      8559.15458	     4.94497e-16	
      8561.05303	     4.95589e-16	
      8562.95148	     4.99476e-16	
      8564.84992	     5.05815e-16	
      8566.74837	     5.05696e-16	
      8568.64682	     5.03856e-16	
      8570.54527	     5.01968e-16	
      8572.44372	     4.97973e-16	
      8574.34217	     4.97638e-16	
      8576.24062	     5.00044e-16	
      8578.13907	     5.02480e-16	
      8580.03752	     5.12184e-16	
      8581.93597	     5.23096e-16	
      8583.83442	     5.16207e-16	
      8585.73287	     5.15437e-16	
      8587.63132	     5.20044e-16	
      8589.52976	     5.12417e-16	
      8591.42821	     5.07193e-16	
      8593.32666	     5.06479e-16	
      8595.22511	     5.03388e-16	
      8597.12356	     5.08811e-16	
      8599.02201	     5.10435e-16	
      8600.92046	     5.11619e-16	
      8602.81891	     5.17715e-16	
      8604.71736	     5.19075e-16	
      8606.61581	     4.90804e-16	
      8608.51426	     4.48764e-16	
      8610.41271	     4.08690e-16	
      8612.31116	     3.61220e-16	
      8614.20960	     3.34018e-16	
      8616.10805	     3.24462e-16	
      8618.00650	     3.40292e-16	
      8619.90495	     3.49172e-16	
      8621.80340	     3.43271e-16	
      8623.70185	     3.30023e-16	
      8625.60030	     3.28659e-16	
      8627.49875	     3.20868e-16	
      8629.39720	     3.08472e-16	
      8631.29565	     3.20771e-16	
      8633.19410	     3.32561e-16	
      8635.09255	     3.40455e-16	
      8636.99100	     3.47272e-16	
      8638.88944	     3.55069e-16	
      8640.78789	     3.66388e-16	
      8642.68634	     3.68897e-16	
      8644.58479	     3.65113e-16	
      8646.48324	     3.72222e-16	
      8648.38169	     3.92316e-16	
      8650.28014	     4.11067e-16	
      8652.17859	     4.25907e-16	
      8654.07704	     4.23139e-16	
      8655.97549	     4.29076e-16	
      8657.87394	     4.21547e-16	
      8659.77239	     4.21136e-16	
      8661.67084	     4.24043e-16	
      8663.56928	     4.23157e-16	
      8665.46773	     4.25730e-16	
      8667.36618	     4.13186e-16	
      8669.26463	     4.05067e-16	
      8671.16308	     4.10062e-16	
      8673.06153	     4.27459e-16	
      8674.95998	     4.39921e-16	
      8676.85843	     4.38916e-16	
      8678.75688	     4.17847e-16	
      8680.65533	     4.02379e-16	
      8682.55378	     4.02858e-16	
      8684.45223	     4.12954e-16	
      8686.35068	     4.12272e-16	
      8688.24912	     3.88927e-16	
      8690.14757	     3.51167e-16	
      8692.04602	     3.10811e-16	
      8693.94447	     2.90318e-16	
      8695.84292	     2.93892e-16	
      8697.74137	     3.13772e-16	
      8699.63982	     3.30447e-16	
      8701.53827	     3.36980e-16	
      8703.43672	     3.38439e-16	
      8705.33517	     3.28774e-16	
      8707.23362	     3.13236e-16	
      8709.13207	     3.01256e-16	
      8711.03052	     2.99720e-16	
      8712.92896	     3.04763e-16	
      8714.82741	     3.06892e-16	
      8716.72586	     3.06229e-16	
      8718.62431	     3.09770e-16	
      8720.52276	     3.16160e-16	
      8722.42121	     3.26326e-16	
      8724.31966	     3.39940e-16	
      8726.21811	     3.52257e-16	
      8728.11656	     3.55457e-16	
      8730.01501	     3.46882e-16	
      8731.91346	     3.35972e-16	
      8733.81191	     3.36267e-16	
      8735.71036	     3.44139e-16	
      8737.60880	     3.51779e-16	
      8739.50725	     3.69388e-16	
      8741.40570	     3.88337e-16	
      8743.30415	     3.92166e-16	
      8745.20260	     3.82853e-16	
      8747.10105	     3.69153e-16	
      8748.99950	     3.68249e-16	
      8750.89795	     3.80355e-16	
      8752.79640	     3.84158e-16	
      8754.69485	     3.89627e-16	
      8756.59330	     4.03277e-16	
      8758.49175	     4.12634e-16	
      8760.39020	     3.94863e-16	
      8762.28864	     3.75039e-16	
      8764.18709	     3.69178e-16	
      8766.08554	     3.73954e-16	
      8767.98399	     4.05227e-16	
      8769.88244	     4.51767e-16	
      8771.78089	     4.84903e-16	
      8773.67934	     4.90700e-16	
      8775.57779	     4.66993e-16	
      8777.47624	     4.18918e-16	
      8779.37469	     4.01917e-16	
      8781.27314	     4.15696e-16	
      8783.17159	     4.22352e-16	
      8785.07004	     4.14126e-16	
      8786.96848	     4.14769e-16	
      8788.86693	     4.17268e-16	
      8790.76538	     4.26226e-16	
      8792.66383	     4.46319e-16	
      8794.56228	     4.62488e-16	
      8796.46073	     4.59738e-16	
      8798.35918	     4.25763e-16	
      8800.25763	     3.87461e-16	
      8802.15608	     3.82714e-16	
      8804.05453	     3.95367e-16	
      8805.95298	     4.01889e-16	
      8807.85143	     4.31482e-16	
      8809.74987	     4.70760e-16	
      8811.64832	     5.17238e-16	
      8813.54677	     5.44031e-16	
      8815.44522	     5.49807e-16	
      8817.34367	     5.33128e-16	
      8819.24212	     5.05378e-16	
      8821.14057	     4.65452e-16	
      8823.03902	     4.39933e-16	
      8824.93747	     4.53639e-16	
      8826.83592	     4.57799e-16	
      8828.73437	     4.82566e-16	
      8830.63282	     4.89097e-16	
      8832.53127	     4.94411e-16	
      8834.42971	     4.98900e-16	
      8836.32816	     5.19590e-16	
      8838.22661	     5.36917e-16	
      8840.12506	     5.30160e-16	
      8842.02351	     4.89404e-16	
      8843.92196	     4.39306e-16	
      8845.82041	     4.22001e-16	
      8847.71886	     4.48340e-16	
      8849.61731	     4.99734e-16	
      8851.51576	     5.54760e-16	
      8853.41421	     5.38742e-16	
      8855.31266	     4.97465e-16	
      8857.21111	     4.68757e-16	
      8859.10955	     4.63753e-16	
      8861.00800	     4.71280e-16	
      8862.90645	     4.90585e-16	
      8864.80490	     4.90285e-16	
      8866.70335	     4.52154e-16	
      8868.60180	     4.12360e-16	
      8870.50025	     3.91502e-16	
      8872.39870	     4.20777e-16	
      8874.29715	     4.65283e-16	
      8876.19560	     5.17723e-16	
      8878.09405	     5.30241e-16	
      8879.99250	     4.91205e-16	
      8881.89095	     4.49957e-16	
      8883.78939	     4.39999e-16	
      8885.68784	     4.75239e-16	
      8887.58629	     5.11251e-16	
      8889.48474	     5.08769e-16	
      8891.38319	     4.82850e-16	
      8893.28164	     4.45371e-16	
      8895.18009	     4.29381e-16	
      8897.07854	     4.54828e-16	
      8898.97699	     4.98669e-16	
      8900.87544	     5.43848e-16	
      8902.77389	     5.46512e-16	
      8904.67234	     5.17736e-16	
      8906.57079	     4.93730e-16	
      8908.46923	     4.77046e-16	
      8910.36768	     4.91205e-16	
      8912.26613	     5.10843e-16	
      8914.16458	     5.24490e-16	
      8916.06303	     5.38445e-16	
      8917.96148	     5.34244e-16	
      8919.85993	     5.14435e-16	
      8921.75838	     4.88745e-16	
      8923.65683	     4.77043e-16	
      8925.55528	     4.91498e-16	
      8927.45373	     5.26347e-16	
      8929.35218	     5.71024e-16	
      8931.25063	     5.97018e-16	
      8933.14907	     5.80382e-16	
      8935.04752	     5.33962e-16	
      8936.94597	     4.77650e-16	
      8938.84442	     4.43133e-16	
      8940.74287	     4.27207e-16	
      8942.64132	     4.27651e-16	
      8944.53977	     4.66753e-16	
      8946.43822	     5.13461e-16	
      8948.33667	     5.23864e-16	
      8950.23512	     5.11499e-16	
      8952.13357	     5.23689e-16	
      8954.03202	     5.57718e-16	
      8955.93047	     5.78882e-16	
      8957.82891	     5.75029e-16	
      8959.72736	     5.61828e-16	
      8961.62581	     5.31555e-16	
      8963.52426	     5.00603e-16	
      8965.42271	     4.95872e-16	
      8967.32116	     5.21354e-16	
      8969.21961	     5.43465e-16	
      8971.11806	     5.52219e-16	
      8973.01651	     5.73504e-16	
      8974.91496	     5.91147e-16	
      8976.81341	     5.83900e-16	
      8978.71186	     5.61141e-16	
      8980.61031	     5.62243e-16	
      8982.50875	     5.99247e-16	
      8984.40720	     6.25279e-16	
      8986.30565	     6.16087e-16	
      8988.20410	     5.76312e-16	
      8990.10255	     5.53090e-16	
      8992.00100	     5.51402e-16	
      8993.89945	     5.46524e-16	
      8995.79790	     5.40176e-16	
      8997.69635	     5.36552e-16	
      8999.59480	     5.55496e-16	
      9001.49325	     6.05228e-16	
      9003.39170	     6.38319e-16	
      9005.29015	     6.29498e-16	
      9007.18859	     5.97920e-16	
      9009.08704	     5.92772e-16	
      9010.98549	     6.06884e-16	
      9012.88394	     6.12069e-16	
      9014.78239	     5.97549e-16	
      9016.68084	     5.78679e-16	
      9018.57929	     5.52591e-16	
      9020.47774	     5.22390e-16	
      9022.37619	     4.99104e-16	
      9024.27464	     4.84862e-16	
      9026.17309	     4.90642e-16	
      9028.07154	     5.25623e-16	
      9029.96998	     5.62973e-16	
      9031.86843	     6.02961e-16	
      9033.76688	     6.32348e-16	
      9035.66533	     6.60343e-16	
      9037.56378	     6.56661e-16	
      9039.46223	     6.29463e-16	
      9041.36068	     6.11925e-16	
      9043.25913	     6.17587e-16	
      9045.15758	     6.35087e-16	
      9047.05603	     6.48990e-16	
      9048.95448	     6.26497e-16	
      9050.85293	     5.84705e-16	
      9052.75138	     5.66151e-16	
      9054.64982	     5.56657e-16	
      9056.54827	     5.40678e-16	
      9058.44672	     5.31792e-16	
      9060.34517	     5.40691e-16	
      9062.24362	     5.40792e-16	
      9064.14207	     5.36532e-16	
      9066.04052	     5.42570e-16	
      9067.93897	     5.42041e-16	
      9069.83742	     5.47691e-16	
      9071.73587	     5.53323e-16	
      9073.63432	     5.66685e-16	
      9075.53277	     6.00513e-16	
      9077.43122	     6.25638e-16	
      9079.32966	     6.18043e-16	
      9081.22811	     6.02933e-16	
      9083.12656	     5.99573e-16	
      9085.02501	     5.94239e-16	
      9086.92346	     5.95608e-16	
      9088.82191	     6.12786e-16	
      9090.72036	     6.26505e-16	
      9092.61881	     6.36479e-16	
      9094.51726	     6.47928e-16	
      9096.41571	     6.56209e-16	
      9098.31416	     6.51234e-16	
      9100.21261	     6.42870e-16	
      9102.11106	     6.33971e-16	
      9104.00950	     6.24722e-16	
      9105.90795	     6.26731e-16	
      9107.80640	     6.52170e-16	
      9109.70485	     6.76142e-16	
      9111.60330	     6.84145e-16	
      9113.50175	     6.74153e-16	
      9115.40020	     6.76589e-16	
      9117.29865	     6.82325e-16	
      9119.19710	     6.80845e-16	
      9121.09555	     6.73340e-16	
      9122.99400	     6.78432e-16	
      9124.89245	     6.82556e-16	
      9126.79090	     6.81599e-16	
      9128.68934	     6.99904e-16	
      9130.58779	     7.17601e-16	
      9132.48624	     7.20592e-16	
      9134.38469	     7.02927e-16	
      9136.28314	     6.49494e-16	
      9138.18159	     6.25460e-16	
      9140.08004	     6.35203e-16	
      9141.97849	     6.78000e-16	
      9143.87694	     7.02420e-16	
      9145.77539	     6.81633e-16	
      9147.67384	     6.64473e-16	
      9149.57229	     6.71298e-16	
      9151.47074	     7.10709e-16	
      9153.36918	     7.62703e-16	
      9155.26763	     7.76288e-16	
      9157.16608	     7.61391e-16	
      9159.06453	     7.24143e-16	
      9160.96298	     7.17533e-16	
      9162.86143	     7.34807e-16	
      9164.75988	     7.53228e-16	
      9166.65833	     7.56865e-16	
      9168.55678	     7.46882e-16	
      9170.45523	     7.20204e-16	
      9172.35368	     6.85436e-16	
      9174.25213	     6.72654e-16	
      9176.15058	     6.83556e-16	
      9178.04902	     7.07711e-16	
      9179.94747	     7.16810e-16	
      9181.84592	     7.16188e-16	
      9183.74437	     7.44566e-16	
      9185.64282	     7.91668e-16	
      9187.54127	     8.32812e-16	
      9189.43972	     8.34894e-16	
      9191.33817	     7.93469e-16	
      9193.23662	     7.79312e-16	
      9195.13507	     7.98193e-16	
      9197.03352	     8.23225e-16	
      9198.93197	     8.33071e-16	
      9200.83042	     8.25253e-16	
      9202.72886	     8.03444e-16	
      9204.62731	     7.59021e-16	
      9206.52576	     7.11885e-16	
      9208.42421	     6.97617e-16	
      9210.32266	     7.03674e-16	
      9212.22111	     7.22154e-16	
      9214.11956	     7.41234e-16	
      9216.01801	     7.52167e-16	
      9217.91646	     7.53156e-16	
      9219.81491	     7.38300e-16	
      9221.71336	     7.29311e-16	
      9223.61181	     7.36118e-16	
      9225.51026	     7.33932e-16	
      9227.40870	     7.18600e-16	
      9229.30715	     7.14243e-16	
      9231.20560	     6.96752e-16	
      9233.10405	     6.83593e-16	
      9235.00250	     6.91526e-16	
      9236.90095	     6.97700e-16	
      9238.79940	     7.28566e-16	
      9240.69785	     7.67662e-16	
      9242.59630	     7.63601e-16	
      9244.49475	     7.22866e-16	
      9246.39320	     6.86079e-16	
      9248.29165	     6.70311e-16	
      9250.19010	     6.83441e-16	
      9252.08854	     7.34549e-16	
      9253.98699	     7.77709e-16	
      9255.88544	     7.90636e-16	
      9257.78389	     7.59566e-16	
      9259.68234	     7.33354e-16	
      9261.58079	     7.34331e-16	
      9263.47924	     7.62047e-16	
      9265.37769	     7.92811e-16	
      9267.27614	     7.97077e-16	
      9269.17459	     7.67204e-16	
      9271.07304	     7.30465e-16	
      9272.97149	     7.02105e-16	
      9274.86993	     6.67153e-16	
      9276.76838	     6.57094e-16	
      9278.66683	     6.61370e-16	
      9280.56528	     6.91017e-16	
      9282.46373	     7.28869e-16	
      9284.36218	     7.36259e-16	
      9286.26063	     7.13529e-16	
      9288.15908	     7.15989e-16	
      9290.05753	     7.16015e-16	
      9291.95598	     7.05887e-16	
      9293.85443	     6.98443e-16	
      9295.75288	     6.84614e-16	
      9297.65133	     6.69872e-16	
      9299.54977	     6.55676e-16	
      9301.44822	     6.60987e-16	
      9303.34667	     6.57911e-16	
      9305.24512	     6.66960e-16	
      9307.14357	     6.63614e-16	
      9309.04202	     6.73809e-16	
      9310.94047	     7.07759e-16	
      9312.83892	     7.05570e-16	
      9314.73737	     6.59494e-16	
      9316.63582	     6.30782e-16	
      9318.53427	     6.49790e-16	
      9320.43272	     6.62549e-16	
      9322.33117	     6.56170e-16	
      9324.22961	     6.21715e-16	
      9326.12806	     6.37091e-16	
      9328.02651	     6.63801e-16	
      9329.92496	     6.71009e-16	
      9331.82341	     6.24988e-16	
      9333.72186	     6.05400e-16	
      9335.62031	     6.25355e-16	
      9337.51876	     6.28064e-16	
      9339.41721	     6.08851e-16	
      9341.31566	     5.76316e-16	
      9343.21411	     5.63156e-16	
      9345.11256	     6.15358e-16	
      9347.01101	     6.70287e-16	
      9348.90945	     6.89955e-16	
      9350.80790	     6.55541e-16	
      9352.70635	     6.06535e-16	
      9354.60480	     6.03508e-16	
      9356.50325	     6.28073e-16	
      9358.40170	     6.77148e-16	
      9360.30015	     7.43904e-16	
      9362.19860	     7.45952e-16	
      9364.09705	     7.06125e-16	
      9365.99550	     6.74118e-16	
      9367.89395	     6.30352e-16	
      9369.79240	     6.13302e-16	
      9371.69085	     6.43318e-16	
      9373.58929	     6.88675e-16	
      9375.48774	     6.79539e-16	
      9377.38619	     6.54804e-16	
      9379.28464	     6.41102e-16	
      9381.18309	     6.53101e-16	
      9383.08154	     6.86425e-16	
      9384.97999	     7.05297e-16	
      9386.87844	     7.09710e-16	
      9388.77689	     7.34527e-16	
      9390.67534	     7.68298e-16	
      9392.57379	     7.66841e-16	
      9394.47224	     7.48949e-16	
      9396.37069	     7.39552e-16	
      9398.26913	     7.34822e-16	
      9400.16758	     7.31621e-16	
      9402.06603	     7.62312e-16	
      9403.96448	     7.97364e-16	
      9405.86293	     8.24667e-16	
      9407.76138	     8.34042e-16	
      9409.65983	     8.05548e-16	
      9411.55828	     7.84537e-16	
      9413.45673	     7.80725e-16	
      9415.35518	     7.75876e-16	
      9417.25363	     7.62268e-16	
      9419.15208	     7.63231e-16	
      9421.05053	     7.68480e-16	
      9422.94897	     7.53055e-16	
      9424.84742	     7.26368e-16	
      9426.74587	     7.12535e-16	
      9428.64432	     7.24149e-16	
      9430.54277	     7.76660e-16	
      9432.44122	     8.20261e-16	
      9434.33967	     8.02111e-16	
      9436.23812	     7.30689e-16	
      9438.13657	     6.69569e-16	
      9440.03502	     6.47191e-16	
      9441.93347	     6.58131e-16	
      9443.83192	     7.10517e-16	
      9445.73037	     7.77465e-16	
      9447.62881	     8.18569e-16	
      9449.52726	     8.23594e-16	
      9451.42571	     7.99920e-16	
      9453.32416	     7.69061e-16	
      9455.22261	     7.45275e-16	
      9457.12106	     7.32938e-16	
      9459.01951	     7.23451e-16	
      9460.91796	     7.40980e-16	
      9462.81641	     7.92495e-16	
      9464.71486	     8.21132e-16	
      9466.61331	     8.22588e-16	
      9468.51176	     8.17659e-16	
      9470.41021	     8.19899e-16	
      9472.30865	     8.30623e-16	
      9474.20710	     8.54073e-16	
      9476.10555	     8.73825e-16	
      9478.00400	     8.69790e-16	
      9479.90245	     8.32403e-16	
      9481.80090	     8.34284e-16	
      9483.69935	     8.82545e-16	
      9485.59780	     9.20259e-16	
      9487.49625	     9.50350e-16	
      9489.39470	     9.50185e-16	
      9491.29315	     8.96164e-16	
      9493.19160	     8.49527e-16	
      9495.09005	     8.35223e-16	
      9496.98849	     8.39737e-16	
      9498.88694	     8.27992e-16	
      9500.78539	     8.31957e-16	
      9502.68384	     8.73636e-16	
      9504.58229	     9.22138e-16	
      9506.48074	     9.49990e-16	
      9508.37919	     9.48397e-16	
      9510.27764	     9.39896e-16	
      9512.17609	     9.13909e-16	
      9514.07454	     8.64751e-16	
      9515.97299	     8.25287e-16	
      9517.87144	     7.96255e-16	
      9519.76988	     8.23394e-16	
      9521.66833	     8.50455e-16	
      9523.56678	     8.86990e-16	
      9525.46523	     9.15998e-16	
      9527.36368	     9.19579e-16	
      9529.26213	     9.38308e-16	
      9531.16058	     9.27037e-16	
      9533.05903	     9.11878e-16	
      9534.95748	     8.98639e-16	
      9536.85593	     9.02137e-16	
      9538.75438	     9.07283e-16	
      9540.65283	     9.16555e-16	
      9542.55128	     8.99299e-16	
      9544.44972	     9.03075e-16	
      9546.34817	     9.12133e-16	
      9548.24662	     9.27858e-16	
      9550.14507	     9.41239e-16	
      9552.04352	     9.51019e-16	
      9553.94197	     9.60557e-16	
      9555.84042	     9.71813e-16	
      9557.73887	     9.74543e-16	
      9559.63732	     9.60962e-16	
      9561.53577	     9.20301e-16	
      9563.43422	     8.93432e-16	
      9565.33267	     8.91776e-16	
      9567.23112	     9.28674e-16	
      9569.12956	     9.58001e-16	
      9571.02801	     9.68481e-16	
      9572.92646	     9.54385e-16	
      9574.82491	     9.51188e-16	
      9576.72336	     9.46100e-16	
      9578.62181	     9.20663e-16	
      9580.52026	     8.99977e-16	
      9582.41871	     9.07991e-16	
      9584.31716	     8.77938e-16	
      9586.21561	     8.40086e-16	
      9588.11406	     8.02806e-16	
      9590.01251	     8.07183e-16	
      9591.91096	     8.17951e-16	
      9593.80940	     8.28871e-16	
      9595.70785	     8.26014e-16	
      9597.60630	     8.34800e-16	
      9599.50475	     8.64966e-16	
      9601.40320	     8.96850e-16	
      9603.30165	     9.04170e-16	
      9605.20010	     8.95418e-16	
      9607.09855	     9.13613e-16	
      9608.99700	     9.19861e-16	
      9610.89545	     9.04671e-16	
      9612.79390	     9.17707e-16	
      9614.69235	     9.44304e-16	
      9616.59080	     9.69287e-16	
      9618.48924	     9.62035e-16	
      9620.38769	     9.56878e-16	
      9622.28614	     9.57693e-16	
      9624.18459	     9.51527e-16	
      9626.08304	     9.48320e-16	
      9627.98149	     9.32460e-16	
      9629.87994	     9.19010e-16	
      9631.77839	     8.81737e-16	
      9633.67684	     8.27086e-16	
      9635.57529	     7.92568e-16	
      9637.47374	     7.90891e-16	
      9639.37219	     8.30817e-16	
      9641.27064	     8.54559e-16	
      9643.16908	     8.61684e-16	
      9645.06753	     8.83676e-16	
      9646.96598	     8.86032e-16	
      9648.86443	     8.84029e-16	
      9650.76288	     8.70733e-16	
      9652.66133	     8.70425e-16	
      9654.55978	     8.90556e-16	
      9656.45823	     9.19261e-16	
      9658.35668	     9.44209e-16	
      9660.25513	     9.62961e-16	
      9662.15358	     9.78155e-16	
      9664.05203	     9.95899e-16	
      9665.95048	     1.00791e-15	
      9667.84892	     1.01240e-15	
      9669.74737	     1.01968e-15	
      9671.64582	     1.02669e-15	
      9673.54427	     1.02659e-15	
      9675.44272	     1.02345e-15	
      9677.34117	     1.03110e-15	
      9679.23962	     1.02436e-15	
      9681.13807	     1.00531e-15	
      9683.03652	     1.00185e-15	
      9684.93497	     1.00505e-15	
      9686.83342	     1.03122e-15	
      9688.73187	     1.05535e-15	
      9690.63032	     1.08051e-15	
      9692.52876	     1.09032e-15	
      9694.42721	     1.09552e-15	
      9696.32566	     1.10420e-15	
      9698.22411	     1.09108e-15	
      9700.12256	     1.08521e-15	
      9702.02101	     1.05448e-15	
      9703.91946	     1.05128e-15	
      9705.81791	     1.06038e-15	
      9707.71636	     1.08613e-15	
      9709.61481	     1.09763e-15	
      9711.51326	     1.11816e-15	
      9713.41171	     1.12516e-15	
      9715.31016	     1.12487e-15	
      9717.20860	     1.11421e-15	
      9719.10705	     1.10220e-15	
      9721.00550	     1.09215e-15	
      9722.90395	     1.09009e-15	
      9724.80240	     1.09074e-15	
      9726.70085	     1.08081e-15	
      9728.59930	     1.09536e-15	
      9730.49775	     1.12019e-15	
      9732.39620	     1.13501e-15	
      9734.29465	     1.12732e-15	
      9736.19310	     1.10376e-15	
      9738.09155	     1.12082e-15	
      9739.98999	     1.11148e-15	
      9741.88844	     1.08374e-15	
      9743.78689	     1.08082e-15	
      9745.68534	     1.08295e-15	
      9747.58379	     1.11067e-15	
      9749.48224	     1.12800e-15	
      9751.38069	     1.13487e-15	
      9753.27914	     1.13311e-15	
      9755.17759	     1.13877e-15	
      9757.07604	     1.13052e-15	
      9758.97449	     1.15417e-15	
      9760.87294	     1.16272e-15	
      9762.77139	     1.18089e-15	
      9764.66983	     1.20281e-15	
      9766.56828	     1.20368e-15	
      9768.46673	     1.19389e-15	
      9770.36518	     1.17166e-15	
      9772.26363	     1.16761e-15	
      9774.16208	     1.16911e-15	
      9776.06053	     1.15110e-15	
      9777.95898	     1.12333e-15	
      9779.85743	     1.09505e-15	
      9781.75588	     1.08357e-15	
      9783.65433	     1.10607e-15	
      9785.55278	     1.11861e-15	
      9787.45123	     1.15236e-15	
      9789.34967	     1.15279e-15	
      9791.24812	     1.16707e-15	
      9793.14657	     1.19448e-15	
      9795.04502	     1.19902e-15	
      9796.94347	     1.19650e-15	
      9798.84192	     1.19196e-15	
      9800.74037	     1.20300e-15	
      9802.63882	     1.18405e-15	
      9804.53727	     1.19815e-15	
      9806.43572	     1.21826e-15	
      9808.33417	     1.21014e-15	
      9810.23262	     1.19049e-15	
      9812.13107	     1.17549e-15	
      9814.02951	     1.16948e-15	
      9815.92796	     1.15993e-15	
      9817.82641	     1.16068e-15	
      9819.72486	     1.16197e-15	
      9821.62331	     1.17806e-15	
      9823.52176	     1.17192e-15	
      9825.42021	     1.15433e-15	
      9827.31866	     1.17717e-15	
      9829.21711	     1.19953e-15	
      9831.11556	     1.15948e-15	
      9833.01401	     1.15344e-15	
      9834.91246	     1.17947e-15	
      9836.81091	     1.18120e-15	
      9838.70935	     1.20208e-15	
      9840.60780	     1.20561e-15	
      9842.50625	     1.24469e-15	
      9844.40470	     1.24409e-15	
      9846.30315	     1.23087e-15	
      9848.20160	     1.22674e-15	
      9850.10005	     1.24668e-15	
      9851.99850	     1.25526e-15	
      9853.89695	     1.28424e-15	
      9855.79540	     1.28622e-15	
      9857.69385	     1.28384e-15	
      9859.59230	     1.31386e-15	
      9861.49075	     1.32853e-15	
      9863.38919	     1.31650e-15	
      9865.28764	     1.28449e-15	
      9867.18609	     1.27181e-15	
      9869.08454	     1.31599e-15	
      9870.98299	     1.37928e-15	
      9872.88144	     1.38788e-15	
      9874.77989	     1.34347e-15	
      9876.67834	     1.31147e-15	
      9878.57679	     1.31334e-15	
      9880.47524	     1.35984e-15	
      9882.37369	     1.37926e-15	
      9884.27214	     1.36443e-15	
      9886.17059	     1.33195e-15	
      9888.06903	     1.28695e-15	
      9889.96748	     1.20560e-15	
      9891.86593	     1.10355e-15	
      9893.76438	     9.93830e-16	
      9895.66283	     8.84823e-16	
      9897.56128	     8.37791e-16	
      9899.45973	     7.89599e-16	
      9901.35818	     7.13597e-16	
      9903.25663	     6.49554e-16	
      9905.15508	     6.27367e-16	
      9907.05353	     6.13496e-16	
      9908.95198	     5.79262e-16	
      9910.85043	     5.52831e-16	
      9912.74887	     5.43862e-16	
      9914.64732	     5.48460e-16	
      9916.54577	     5.74022e-16	
      9918.44422	     5.79226e-16	
      9920.34267	     5.64931e-16	
      9922.24112	     5.69013e-16	
      9924.13957	     5.96277e-16	
      9926.03802	     6.24640e-16	
      9927.93647	     6.62092e-16	
      9929.83492	     6.69679e-16	
      9931.73337	     6.69060e-16	
      9933.63182	     7.20827e-16	
      9935.53027	     7.60257e-16	
      9937.42871	     7.78176e-16	
      9939.32716	     7.79179e-16	
      9941.22561	     7.99586e-16	
      9943.12406	     8.47407e-16	
      9945.02251	     9.26887e-16	
      9946.92096	     9.52297e-16	
      9948.81941	     9.83039e-16	
      9950.71786	     9.87530e-16	
      9952.61631	     9.41837e-16	
      9954.51476	     9.13366e-16	
      9956.41321	     9.01914e-16	
      9958.31166	     9.12860e-16	
      9960.21011	     9.71080e-16	
      9962.10855	     1.02915e-15	
      9964.00700	     9.98053e-16	
      9965.90545	     8.83156e-16	
      9967.80390	     8.04829e-16	
      9969.70235	     7.80988e-16	
      9971.60080	     7.88607e-16	
      9973.49925	     8.12734e-16	
      9975.39770	     8.28775e-16	
      9977.29615	     8.44332e-16	
      9979.19460	     8.38154e-16	
      9981.09305	     8.10794e-16	
      9982.99150	     8.15296e-16	
      9984.88994	     8.29767e-16	
      9986.78839	     8.18480e-16	
      9988.68684	     8.27590e-16	
      9990.58529	     8.15774e-16	
      9992.48374	     8.03924e-16	
      9994.38219	     8.51643e-16	
      9996.28064	     9.00772e-16	
      9998.17909	     9.49031e-16	
     10000.07754	     9.87441e-16	
     10001.97599	     9.83067e-16	
     10003.87444	     9.62736e-16	
     10005.77289	     9.27375e-16	
     10007.67134	     8.93131e-16	
     10009.56978	     9.39153e-16	
     10011.46823	     9.37883e-16	
     10013.36668	     9.72288e-16	
     10015.26513	     9.73225e-16	
     10017.16358	     9.70026e-16	
     10019.06203	     9.67166e-16	
     10020.96048	     9.94191e-16	
     10022.85893	     9.67140e-16	
     10024.75738	     9.50729e-16	
     10026.65583	     9.60491e-16	
     10028.55428	     9.39075e-16	
     10030.45273	     8.99199e-16	
     10032.35118	     8.57384e-16	
     10034.24962	     8.76766e-16	
     10036.14807	     9.19339e-16	
     10038.04652	     9.72909e-16	
     10039.94497	     1.01794e-15	
     10041.84342	     1.01972e-15	
     10043.74187	     1.02069e-15	
     10045.64032	     9.53025e-16	
     10047.53877	     8.94673e-16	
     10049.43722	     8.38808e-16	
     10051.33567	     8.11995e-16	
     10053.23412	     8.06630e-16	
     10055.13257	     8.34637e-16	
     10057.03102	     8.62113e-16	
     10058.92946	     8.60234e-16	
     10060.82791	     8.85102e-16	
     10062.72636	     9.36303e-16	
     10064.62481	     9.72606e-16	
     10066.52326	     9.77037e-16	
     10068.42171	     9.97146e-16	
     10070.32016	     1.01620e-15	
     10072.21861	     1.05196e-15	
     10074.11706	     1.08350e-15	
     10076.01551	     1.08395e-15	
     10077.91396	     1.11566e-15	
     10079.81241	     1.14010e-15	
     10081.71086	     1.14502e-15	
     10083.60930	     1.14490e-15	
     10085.50775	     1.08386e-15	
     10087.40620	     1.07218e-15	
     10089.30465	     1.08147e-15	
     10091.20310	     1.15272e-15	
     10093.10155	     1.20293e-15	
     10095.00000	     1.30463e-15	
#time:0.048612
