# Keck LRIS spectra of late-M, L and T dwarfs
# spty = L3  (Spectral type)
#
#     WAVELENGTH	#            FLUX	
#     (ANGSTROM)	#   (ERG/CM2/S/A)	
################	#################	
      6300.00000	      0.00000e+00	
      6301.90000	      0.00000e+00	
      6303.80000	      0.00000e+00	
      6305.70000	      0.00000e+00	
      6307.60000	      0.00000e+00	
      6309.50000	      0.00000e+00	
      6311.40000	      0.00000e+00	
      6313.30000	      0.00000e+00	
      6315.20000	      0.00000e+00	
      6317.10000	      0.00000e+00	
      6319.00000	      0.00000e+00	
      6320.90000	      0.00000e+00	
      6322.80000	     -1.74389e-19	
      6324.70000	      1.97257e-19	
      6326.60000	      2.42439e-18	
      6328.50000	      8.49875e-19	
      6330.40000	     -1.39200e-19	
      6332.30000	      1.80282e-18	
      6334.20000	      1.80561e-18	
      6336.10000	      1.05937e-18	
      6338.00000	      2.47131e-19	
      6339.90000	      1.91229e-19	
      6341.80000	      1.33196e-18	
      6343.70000	      1.28381e-18	
      6345.60000	      6.98353e-19	
      6347.50000	      1.09521e-18	
      6349.40000	     -2.69369e-19	
      6351.30000	      1.23203e-19	
      6353.20000	      1.23462e-18	
      6355.10000	      1.78886e-19	
      6357.00000	      1.22658e-18	
      6358.90000	      1.17169e-18	
      6360.80000	     -3.08836e-19	
      6362.70000	      9.24656e-19	
      6364.60000	     -1.48570e-19	
      6366.50000	      7.17705e-19	
      6368.40000	      5.11200e-20	
      6370.30000	     -8.55421e-19	
      6372.20000	     -2.82443e-19	
      6374.10000	      8.82016e-19	
      6376.00000	      3.55665e-19	
      6377.90000	      3.87246e-19	
      6379.80000	      4.97435e-19	
      6381.70000	      9.49833e-19	
      6383.60000	      6.35514e-19	
      6385.50000	     -3.88654e-19	
      6387.40000	     -1.56467e-18	
      6389.30000	      1.50854e-18	
      6391.20000	      1.72126e-18	
      6393.10000	      8.26867e-19	
      6395.00000	      6.09080e-19	
      6396.90000	      2.71275e-19	
      6398.80000	      2.82765e-18	
      6400.70000	      1.82505e-18	
      6402.60000	     -2.39905e-19	
      6404.50000	      2.18293e-19	
      6406.40000	      2.55234e-19	
      6408.30000	      1.00891e-18	
      6410.20000	      1.07415e-19	
      6412.10000	      1.36746e-18	
      6414.00000	      4.53954e-19	
      6415.90000	      1.52881e-18	
      6417.80000	      1.48882e-18	
      6419.70000	      1.41795e-18	
      6421.60000	      1.56628e-18	
      6423.50000	      1.63772e-18	
      6425.40000	      1.20556e-18	
      6427.30000	      1.05601e-18	
      6429.20000	      7.42793e-19	
      6431.10000	      5.13251e-19	
      6433.00000	      1.29858e-18	
      6434.90000	      8.77391e-19	
      6436.80000	      1.22964e-18	
      6438.70000	      1.06887e-18	
      6440.60000	      8.42091e-19	
      6442.50000	      1.74077e-19	
      6444.40000	      1.47339e-18	
      6446.30000	      1.29735e-18	
      6448.20000	      1.51602e-18	
      6450.10000	      2.90560e-19	
      6452.00000	      1.10397e-18	
      6453.90000	      3.58720e-19	
      6455.80000	      5.32759e-19	
      6457.70000	      1.56351e-18	
      6459.60000	      1.18101e-18	
      6461.50000	      5.43852e-19	
      6463.40000	      5.64134e-19	
      6465.30000	      1.08066e-18	
      6467.20000	      9.65955e-19	
      6469.10000	      6.13212e-19	
      6471.00000	      2.66871e-18	
      6472.90000	      1.69675e-18	
      6474.80000	      1.36608e-18	
      6476.70000	      6.11377e-19	
      6478.60000	     -1.88651e-19	
      6480.50000	     -8.69728e-19	
      6482.40000	      5.39936e-19	
      6484.30000	      1.19964e-18	
      6486.20000	      2.16412e-18	
      6488.10000	      2.10032e-18	
      6490.00000	      5.47041e-19	
      6491.90000	      8.77792e-19	
      6493.80000	      9.03618e-19	
      6495.70000	      1.39331e-18	
      6497.60000	      6.86405e-19	
      6499.50000	      3.31489e-19	
      6501.40000	      2.58769e-19	
      6503.30000	      1.38060e-18	
      6505.20000	      1.05481e-18	
      6507.10000	      2.25831e-19	
      6509.00000	      9.96248e-19	
      6510.90000	      4.40685e-19	
      6512.80000	      6.26196e-19	
      6514.70000	      1.76807e-18	
      6516.60000	      3.96431e-19	
      6518.50000	      8.06489e-19	
      6520.40000	      4.53586e-19	
      6522.30000	      1.92022e-18	
      6524.20000	      1.96491e-18	
      6526.10000	      1.71456e-18	
      6528.00000	      8.65384e-19	
      6529.90000	      2.94070e-19	
      6531.80000	      8.89913e-19	
      6533.70000	      5.33280e-19	
      6535.60000	      1.48263e-18	
      6537.50000	      9.03256e-19	
      6539.40000	      6.56509e-19	
      6541.30000	      1.09621e-18	
      6543.20000	      1.28493e-18	
      6545.10000	      1.48999e-18	
      6547.00000	      8.54092e-19	
      6548.90000	      1.86664e-18	
      6550.80000	      6.65642e-19	
      6552.70000	      1.22205e-18	
      6554.60000	      1.58956e-18	
      6556.50000	      8.94242e-19	
      6558.40000	      9.59402e-19	
      6560.30000	      1.19768e-18	
      6562.20000	      2.37324e-18	
      6564.10000	      2.04613e-18	
      6566.00000	      1.75003e-18	
      6567.90000	      2.86026e-18	
      6569.80000	      1.55697e-18	
      6571.70000	      1.82549e-18	
      6573.60000	      2.34375e-18	
      6575.50000	      2.14520e-18	
      6577.40000	      1.39701e-18	
      6579.30000	      3.30193e-18	
      6581.20000	      1.85607e-18	
      6583.10000	      1.96227e-18	
      6585.00000	      9.72578e-19	
      6586.90000	      1.98575e-18	
      6588.80000	      2.59363e-18	
      6590.70000	      1.53806e-18	
      6592.60000	      2.13860e-18	
      6594.50000	      2.45197e-18	
      6596.40000	      2.08923e-18	
      6598.30000	      6.21564e-19	
      6600.20000	      7.80635e-19	
      6602.10000	      1.71025e-18	
      6604.00000	      7.44492e-19	
      6605.90000	      1.38067e-18	
      6607.80000	      1.05552e-18	
      6609.70000	      1.82491e-18	
      6611.60000	      1.84821e-18	
      6613.50000	      2.27522e-18	
      6615.40000	      2.54555e-18	
      6617.30000	      2.49337e-18	
      6619.20000	      2.16093e-18	
      6621.10000	      1.73997e-18	
      6623.00000	      1.46699e-18	
      6624.90000	      1.59748e-18	
      6626.80000	      2.00828e-18	
      6628.70000	      1.28335e-18	
      6630.60000	      7.24594e-19	
      6632.50000	      1.07558e-18	
      6634.40000	      1.57901e-18	
      6636.30000	      6.57745e-19	
      6638.20000	      8.30374e-19	
      6640.10000	      1.26458e-18	
      6642.00000	      2.22042e-18	
      6643.90000	      2.27051e-18	
      6645.80000	      1.64754e-18	
      6647.70000	      1.11552e-18	
      6649.60000	      7.26914e-19	
      6651.50000	      2.14479e-18	
      6653.40000	      1.64205e-18	
      6655.30000	      1.16529e-18	
      6657.20000	      2.33335e-18	
      6659.10000	      1.54150e-18	
      6661.00000	      2.50142e-18	
      6662.90000	      2.33064e-18	
      6664.80000	      1.55393e-18	
      6666.70000	      1.41411e-18	
      6668.60000	      2.17109e-18	
      6670.50000	      1.02074e-18	
      6672.40000	      1.13904e-18	
      6674.30000	      1.20077e-18	
      6676.20000	      5.30273e-19	
      6678.10000	      1.33048e-18	
      6680.00000	      1.59748e-18	
      6681.90000	      1.72761e-18	
      6683.80000	      1.14856e-18	
      6685.70000	      2.63779e-18	
      6687.60000	      1.18377e-18	
      6689.50000	      1.30601e-18	
      6691.40000	      7.40686e-19	
      6693.30000	      1.39610e-18	
      6695.20000	      2.21679e-18	
      6697.10000	      1.29279e-18	
      6699.00000	      1.31548e-18	
      6700.90000	      1.55884e-18	
      6702.80000	      1.87411e-18	
      6704.70000	      2.12149e-18	
      6706.60000	      2.34062e-18	
      6708.50000	      2.94106e-18	
      6710.40000	      1.20639e-18	
      6712.30000	      2.49885e-18	
      6714.20000	      2.15385e-18	
      6716.10000	      9.66005e-19	
      6718.00000	      6.17672e-19	
      6719.90000	      1.53364e-18	
      6721.80000	      2.29362e-18	
      6723.70000	      2.39457e-18	
      6725.60000	      1.81176e-18	
      6727.50000	      1.69136e-18	
      6729.40000	      1.82386e-18	
      6731.30000	      1.58812e-18	
      6733.20000	      1.22068e-18	
      6735.10000	      1.12667e-18	
      6737.00000	      2.77163e-18	
      6738.90000	      1.66402e-18	
      6740.80000	      9.85461e-19	
      6742.70000	      2.07394e-18	
      6744.60000	      1.90776e-18	
      6746.50000	      2.31087e-18	
      6748.40000	      1.44632e-18	
      6750.30000	      1.66510e-18	
      6752.20000	      2.25304e-18	
      6754.10000	      1.88063e-18	
      6756.00000	      2.80425e-18	
      6757.90000	      2.70635e-18	
      6759.80000	      1.97898e-18	
      6761.70000	      2.37384e-18	
      6763.60000	      2.62373e-18	
      6765.50000	      1.52969e-18	
      6767.40000	      1.82455e-18	
      6769.30000	      2.22855e-18	
      6771.20000	      2.77837e-18	
      6773.10000	      1.75054e-18	
      6775.00000	      1.97685e-18	
      6776.90000	      2.24817e-18	
      6778.80000	      1.87916e-18	
      6780.70000	      1.60315e-18	
      6782.60000	      2.55048e-18	
      6784.50000	      3.11074e-18	
      6786.40000	      2.85401e-18	
      6788.30000	      2.23798e-18	
      6790.20000	      1.88649e-18	
      6792.10000	      2.37559e-18	
      6794.00000	      1.86913e-18	
      6795.90000	      1.89703e-18	
      6797.80000	      2.05082e-18	
      6799.70000	      1.94105e-18	
      6801.60000	      2.03475e-18	
      6803.50000	      1.05348e-18	
      6805.40000	      5.00602e-19	
      6807.30000	      1.10096e-18	
      6809.20000	      2.06864e-18	
      6811.10000	      2.16606e-18	
      6813.00000	      1.69649e-18	
      6814.90000	      2.52791e-18	
      6816.80000	      2.88763e-18	
      6818.70000	      2.61622e-18	
      6820.60000	      1.67342e-18	
      6822.50000	      1.96788e-18	
      6824.40000	      1.97780e-18	
      6826.30000	      1.36854e-18	
      6828.20000	      9.33487e-19	
      6830.10000	      1.39597e-18	
      6832.00000	      2.14620e-18	
      6833.90000	      3.20190e-18	
      6835.80000	      2.22832e-18	
      6837.70000	      2.08117e-18	
      6839.60000	      2.30252e-18	
      6841.50000	      1.31413e-18	
      6843.40000	      1.37930e-18	
      6845.30000	      1.55219e-18	
      6847.20000	      1.14527e-18	
      6849.10000	      6.37917e-19	
      6851.00000	      1.33649e-18	
      6852.90000	      1.39998e-18	
      6854.80000	      8.57066e-19	
      6856.70000	      7.29577e-19	
      6858.60000	      1.15466e-18	
      6860.50000	      2.07808e-18	
      6862.40000	      1.88772e-18	
      6864.30000	      1.60755e-18	
      6866.20000	      1.31522e-18	
      6868.10000	      7.76981e-19	
      6870.00000	      8.33557e-19	
      6871.90000	      1.24793e-18	
      6873.80000	      8.31877e-19	
      6875.70000	      5.57496e-19	
      6877.60000	      8.40226e-19	
      6879.50000	      1.73164e-18	
      6881.40000	      1.61214e-18	
      6883.30000	      1.53345e-18	
      6885.20000	      1.76799e-18	
      6887.10000	      1.96228e-18	
      6889.00000	      1.95939e-18	
      6890.90000	      1.70326e-18	
      6892.80000	      2.05832e-18	
      6894.70000	      5.64484e-19	
      6896.60000	      1.84361e-18	
      6898.50000	      2.40417e-18	
      6900.40000	      1.39102e-18	
      6902.30000	      1.16101e-18	
      6904.20000	      1.75380e-18	
      6906.10000	      1.84077e-18	
      6908.00000	      2.09155e-18	
      6909.90000	      2.09220e-18	
      6911.80000	      1.86920e-18	
      6913.70000	      1.80354e-18	
      6915.60000	      1.73134e-18	
      6917.50000	      5.16759e-19	
      6919.40000	      1.35087e-18	
      6921.30000	      1.97926e-18	
      6923.20000	      2.17613e-18	
      6925.10000	      1.85810e-18	
      6927.00000	      2.70717e-18	
      6928.90000	      1.65849e-18	
      6930.80000	      1.63388e-18	
      6932.70000	      1.34370e-18	
      6934.60000	      1.54981e-18	
      6936.50000	      1.33955e-18	
      6938.40000	      2.07352e-18	
      6940.30000	      2.87239e-18	
      6942.20000	      2.06125e-18	
      6944.10000	      2.28786e-18	
      6946.00000	      2.88341e-18	
      6947.90000	      3.12822e-18	
      6949.80000	      2.97850e-18	
      6951.70000	      3.01489e-18	
      6953.60000	      2.03963e-18	
      6955.50000	      1.38179e-18	
      6957.40000	      1.79338e-18	
      6959.30000	      2.53680e-18	
      6961.20000	      2.52592e-18	
      6963.10000	      2.25838e-18	
      6965.00000	      2.63989e-18	
      6966.90000	      1.60756e-18	
      6968.80000	      1.80104e-18	
      6970.70000	      2.40125e-18	
      6972.60000	      1.73877e-18	
      6974.50000	      2.30970e-18	
      6976.40000	      2.71256e-18	
      6978.30000	      1.37262e-18	
      6980.20000	      1.47014e-18	
      6982.10000	      2.82912e-18	
      6984.00000	      2.64026e-18	
      6985.90000	      1.53810e-18	
      6987.80000	      1.68821e-18	
      6989.70000	      1.06543e-18	
      6991.60000	      1.81849e-18	
      6993.50000	      1.84061e-18	
      6995.40000	      1.66212e-18	
      6997.30000	      1.86210e-18	
      6999.20000	      1.66143e-18	
      7001.10000	      2.00048e-18	
      7003.00000	      2.01305e-18	
      7004.90000	      2.35005e-18	
      7006.80000	      1.64891e-18	
      7008.70000	      1.16076e-18	
      7010.60000	      3.11035e-18	
      7012.50000	      2.29856e-18	
      7014.40000	      1.98216e-18	
      7016.30000	      2.69298e-18	
      7018.20000	      1.56153e-18	
      7020.10000	      1.62616e-18	
      7022.00000	      2.73990e-18	
      7023.90000	      2.71104e-18	
      7025.80000	      2.28193e-18	
      7027.70000	      1.26848e-18	
      7029.60000	      2.78063e-18	
      7031.50000	      2.24642e-18	
      7033.40000	      2.65033e-18	
      7035.30000	      2.62576e-18	
      7037.20000	      2.39480e-18	
      7039.10000	      2.75436e-18	
      7041.00000	      3.38846e-18	
      7042.90000	      2.53945e-18	
      7044.80000	      2.46719e-18	
      7046.70000	      2.42396e-18	
      7048.60000	      3.00623e-18	
      7050.50000	      3.30010e-18	
      7052.40000	      3.47045e-18	
      7054.30000	      3.07975e-18	
      7056.20000	      3.02701e-18	
      7058.10000	      3.04790e-18	
      7060.00000	      2.75568e-18	
      7061.90000	      2.56370e-18	
      7063.80000	      3.06414e-18	
      7065.70000	      3.24087e-18	
      7067.60000	      3.60657e-18	
      7069.50000	      2.45970e-18	
      7071.40000	      1.67637e-18	
      7073.30000	      3.47423e-18	
      7075.20000	      3.36686e-18	
      7077.10000	      3.17685e-18	
      7079.00000	      2.78648e-18	
      7080.90000	      2.62620e-18	
      7082.80000	      2.98371e-18	
      7084.70000	      2.82975e-18	
      7086.60000	      3.60076e-18	
      7088.50000	      2.78365e-18	
      7090.40000	      2.16751e-18	
      7092.30000	      1.29174e-18	
      7094.20000	      2.58886e-18	
      7096.10000	      4.07645e-18	
      7098.00000	      3.95984e-18	
      7099.90000	      3.57326e-18	
      7101.80000	      2.87844e-18	
      7103.70000	      2.38538e-18	
      7105.60000	      2.09066e-18	
      7107.50000	      3.06477e-18	
      7109.40000	      4.34494e-18	
      7111.30000	      3.42575e-18	
      7113.20000	      2.48390e-18	
      7115.10000	      3.47771e-18	
      7117.00000	      2.71955e-18	
      7118.90000	      2.88787e-18	
      7120.80000	      3.41938e-18	
      7122.70000	      3.11171e-18	
      7124.60000	      3.06645e-18	
      7126.50000	      3.41255e-18	
      7128.40000	      3.60220e-18	
      7130.30000	      3.28824e-18	
      7132.20000	      3.16191e-18	
      7134.10000	      3.49155e-18	
      7136.00000	      4.11218e-18	
      7137.90000	      3.17180e-18	
      7139.80000	      3.09534e-18	
      7141.70000	      3.21487e-18	
      7143.60000	      3.13873e-18	
      7145.50000	      2.55593e-18	
      7147.40000	      3.74704e-18	
      7149.30000	      4.11418e-18	
      7151.20000	      3.29521e-18	
      7153.10000	      3.13544e-18	
      7155.00000	      3.82634e-18	
      7156.90000	      2.69903e-18	
      7158.80000	      2.44438e-18	
      7160.70000	      3.13568e-18	
      7162.60000	      2.67064e-18	
      7164.50000	      3.29124e-18	
      7166.40000	      2.87029e-18	
      7168.30000	      4.08668e-18	
      7170.20000	      3.73244e-18	
      7172.10000	      2.71727e-18	
      7174.00000	      2.83062e-18	
      7175.90000	      3.49730e-18	
      7177.80000	      3.53692e-18	
      7179.70000	      4.26800e-18	
      7181.60000	      3.82054e-18	
      7183.50000	      3.67587e-18	
      7185.40000	      3.37311e-18	
      7187.30000	      4.48925e-18	
      7189.20000	      2.99960e-18	
      7191.10000	      2.90861e-18	
      7193.00000	      3.02157e-18	
      7194.90000	      3.12241e-18	
      7196.80000	      4.04841e-18	
      7198.70000	      4.02190e-18	
      7200.60000	      3.99473e-18	
      7202.50000	      3.48153e-18	
      7204.40000	      3.98357e-18	
      7206.30000	      3.71927e-18	
      7208.20000	      3.59983e-18	
      7210.10000	      4.00367e-18	
      7212.00000	      3.86046e-18	
      7213.90000	      3.85219e-18	
      7215.80000	      3.80573e-18	
      7217.70000	      3.77916e-18	
      7219.60000	      3.86507e-18	
      7221.50000	      4.52568e-18	
      7223.40000	      4.83570e-18	
      7225.30000	      3.35005e-18	
      7227.20000	      3.29553e-18	
      7229.10000	      3.37612e-18	
      7231.00000	      4.45966e-18	
      7232.90000	      3.27550e-18	
      7234.80000	      3.74197e-18	
      7236.70000	      4.74358e-18	
      7238.60000	      4.82584e-18	
      7240.50000	      4.96810e-18	
      7242.40000	      4.32573e-18	
      7244.30000	      3.27366e-18	
      7246.20000	      3.80770e-18	
      7248.10000	      4.16181e-18	
      7250.00000	      4.26276e-18	
      7251.90000	      3.59143e-18	
      7253.80000	      3.71768e-18	
      7255.70000	      4.44530e-18	
      7257.60000	      4.28944e-18	
      7259.50000	      3.88117e-18	
      7261.40000	      3.85868e-18	
      7263.30000	      4.25331e-18	
      7265.20000	      4.46078e-18	
      7267.10000	      3.56873e-18	
      7269.00000	      4.62751e-18	
      7270.90000	      4.67205e-18	
      7272.80000	      3.60095e-18	
      7274.70000	      3.85735e-18	
      7276.60000	      5.96122e-18	
      7278.50000	      4.81638e-18	
      7280.40000	      3.83610e-18	
      7282.30000	      5.11580e-18	
      7284.20000	      5.57952e-18	
      7286.10000	      4.64272e-18	
      7288.00000	      4.57702e-18	
      7289.90000	      4.21778e-18	
      7291.80000	      4.07485e-18	
      7293.70000	      4.93173e-18	
      7295.60000	      5.01101e-18	
      7297.50000	      5.27809e-18	
      7299.40000	      5.28247e-18	
      7301.30000	      5.59019e-18	
      7303.20000	      4.60526e-18	
      7305.10000	      3.99605e-18	
      7307.00000	      3.44852e-18	
      7308.90000	      5.28947e-18	
      7310.80000	      3.30521e-18	
      7312.70000	      3.31210e-18	
      7314.60000	      4.45378e-18	
      7316.50000	      4.46957e-18	
      7318.40000	      4.62894e-18	
      7320.30000	      4.78376e-18	
      7322.20000	      3.91548e-18	
      7324.10000	      3.79541e-18	
      7326.00000	      4.41194e-18	
      7327.90000	      4.41773e-18	
      7329.80000	      5.06072e-18	
      7331.70000	      4.36281e-18	
      7333.60000	      3.19038e-18	
      7335.50000	      4.34678e-18	
      7337.40000	      4.65284e-18	
      7339.30000	      5.61931e-18	
      7341.20000	      4.13103e-18	
      7343.10000	      4.06691e-18	
      7345.00000	      4.94871e-18	
      7346.90000	      3.72590e-18	
      7348.80000	      3.57478e-18	
      7350.70000	      5.32274e-18	
      7352.60000	      4.68032e-18	
      7354.50000	      4.31716e-18	
      7356.40000	      4.29600e-18	
      7358.30000	      5.08848e-18	
      7360.20000	      5.57978e-18	
      7362.10000	      5.22744e-18	
      7364.00000	      5.29154e-18	
      7365.90000	      4.85712e-18	
      7367.80000	      4.86167e-18	
      7369.70000	      4.90827e-18	
      7371.60000	      4.18276e-18	
      7373.50000	      4.15448e-18	
      7375.40000	      4.76110e-18	
      7377.30000	      4.86885e-18	
      7379.20000	      4.22331e-18	
      7381.10000	      4.98801e-18	
      7383.00000	      5.35189e-18	
      7384.90000	      4.75285e-18	
      7386.80000	      4.26094e-18	
      7388.70000	      3.62527e-18	
      7390.60000	      4.94049e-18	
      7392.50000	      4.22940e-18	
      7394.40000	      3.91990e-18	
      7396.30000	      5.72005e-18	
      7398.20000	      5.71735e-18	
      7400.10000	      3.43473e-18	
      7402.00000	      4.38145e-18	
      7403.90000	      4.50735e-18	
      7405.80000	      4.47976e-18	
      7407.70000	      4.64195e-18	
      7409.60000	      4.18598e-18	
      7411.50000	      3.91794e-18	
      7413.40000	      4.84845e-18	
      7415.30000	      4.45957e-18	
      7417.20000	      4.59294e-18	
      7419.10000	      4.71002e-18	
      7421.00000	      4.62441e-18	
      7422.90000	      4.82517e-18	
      7424.80000	      5.25594e-18	
      7426.70000	      5.01986e-18	
      7428.60000	      5.32242e-18	
      7430.50000	      5.02251e-18	
      7432.40000	      5.46750e-18	
      7434.30000	      5.22555e-18	
      7436.20000	      4.16603e-18	
      7438.10000	      4.41553e-18	
      7440.00000	      3.87983e-18	
      7441.90000	      4.79870e-18	
      7443.80000	      5.21671e-18	
      7445.70000	      5.06157e-18	
      7447.60000	      5.10472e-18	
      7449.50000	      4.68956e-18	
      7451.40000	      4.92028e-18	
      7453.30000	      4.34881e-18	
      7455.20000	      4.92665e-18	
      7457.10000	      3.87651e-18	
      7459.00000	      3.78918e-18	
      7460.90000	      4.47601e-18	
      7462.80000	      5.16739e-18	
      7464.70000	      4.41223e-18	
      7466.60000	      5.30361e-18	
      7468.50000	      5.73391e-18	
      7470.40000	      5.25206e-18	
      7472.30000	      4.44773e-18	
      7474.20000	      3.89748e-18	
      7476.10000	      4.14946e-18	
      7478.00000	      5.14686e-18	
      7479.90000	      5.12510e-18	
      7481.80000	      4.74538e-18	
      7483.70000	      4.92045e-18	
      7485.60000	      7.25682e-18	
      7487.50000	      6.69078e-18	
      7489.40000	      4.69846e-18	
      7491.30000	      4.14912e-18	
      7493.20000	      4.63134e-18	
      7495.10000	      4.90149e-18	
      7497.00000	      4.25639e-18	
      7498.90000	      4.80790e-18	
      7500.80000	      4.53469e-18	
      7502.70000	      4.91218e-18	
      7504.60000	      3.94294e-18	
      7506.50000	      3.60949e-18	
      7508.40000	      4.38843e-18	
      7510.30000	      4.65432e-18	
      7512.20000	      3.57112e-18	
      7514.10000	      4.31643e-18	
      7516.00000	      5.02126e-18	
      7517.90000	      4.77934e-18	
      7519.80000	      4.82678e-18	
      7521.70000	      5.15297e-18	
      7523.60000	      4.51680e-18	
      7525.50000	      4.05309e-18	
      7527.40000	      4.04390e-18	
      7529.30000	      4.37336e-18	
      7531.20000	      4.94991e-18	
      7533.10000	      3.70386e-18	
      7535.00000	      4.46461e-18	
      7536.90000	      3.81934e-18	
      7538.80000	      4.73234e-18	
      7540.70000	      5.14620e-18	
      7542.60000	      4.71992e-18	
      7544.50000	      4.34679e-18	
      7546.40000	      4.92642e-18	
      7548.30000	      4.69603e-18	
      7550.20000	      3.97724e-18	
      7552.10000	      4.44345e-18	
      7554.00000	      4.17661e-18	
      7555.90000	      5.48726e-18	
      7557.80000	      3.89301e-18	
      7559.70000	      4.09750e-18	
      7561.60000	      4.20956e-18	
      7563.50000	      5.02564e-18	
      7565.40000	      4.92840e-18	
      7567.30000	      4.41085e-18	
      7569.20000	      4.55371e-18	
      7571.10000	      4.32833e-18	
      7573.00000	      4.35450e-18	
      7574.90000	      4.15291e-18	
      7576.80000	      4.63903e-18	
      7578.70000	      4.47486e-18	
      7580.60000	      3.40327e-18	
      7582.50000	      3.37630e-18	
      7584.40000	      3.47760e-18	
      7586.30000	      3.06538e-18	
      7588.20000	      2.63853e-18	
      7590.10000	      1.79496e-18	
      7592.00000	      2.32696e-18	
      7593.90000	      2.19432e-18	
      7595.80000	      2.26478e-18	
      7597.70000	      5.70387e-19	
      7599.60000	      1.16305e-18	
      7601.50000	      1.20773e-18	
      7603.40000	      1.11619e-18	
      7605.30000	      1.58658e-18	
      7607.20000	      1.50942e-18	
      7609.10000	      2.39026e-18	
      7611.00000	      2.30686e-18	
      7612.90000	      2.54827e-18	
      7614.80000	      2.82006e-18	
      7616.70000	      2.71468e-18	
      7618.60000	      2.06815e-18	
      7620.50000	      1.95613e-18	
      7622.40000	      7.22019e-19	
      7624.30000	      9.86864e-19	
      7626.20000	      2.93832e-20	
      7628.10000	      1.48997e-18	
      7630.00000	      2.19331e-18	
      7631.90000	      8.64939e-19	
      7633.80000	      8.89574e-20	
      7635.70000	      1.96382e-18	
      7637.60000	      1.82193e-18	
      7639.50000	      1.63283e-18	
      7641.40000	      9.94546e-19	
      7643.30000	      1.67398e-18	
      7645.20000	      1.55160e-18	
      7647.10000	      8.26987e-19	
      7649.00000	      1.45892e-18	
      7650.90000	      2.02854e-18	
      7652.80000	      1.53804e-18	
      7654.70000	      1.63322e-18	
      7656.60000	      4.71903e-19	
      7658.50000	      8.86024e-19	
      7660.40000	      1.02897e-18	
      7662.30000	     -1.12780e-19	
      7664.20000	      3.63327e-19	
      7666.10000	      7.90057e-19	
      7668.00000	      1.09162e-18	
      7669.90000	      7.85132e-19	
      7671.80000	      7.57822e-19	
      7673.70000	      7.06647e-20	
      7675.60000	      1.57686e-19	
      7677.50000	      7.93723e-19	
      7679.40000	     -2.74386e-19	
      7681.30000	      6.74985e-19	
      7683.20000	      1.30901e-18	
      7685.10000	      1.16474e-18	
      7687.00000	      7.74775e-19	
      7688.90000	      6.11047e-19	
      7690.80000	      7.36343e-19	
      7692.70000	      9.00458e-19	
      7694.60000	      5.57281e-19	
      7696.50000	      1.25681e-18	
      7698.40000	      8.07989e-20	
      7700.30000	      9.92059e-19	
      7702.20000	     -7.66412e-20	
      7704.10000	      2.83144e-18	
      7706.00000	      2.86872e-18	
      7707.90000	      1.96876e-18	
      7709.80000	      2.77143e-19	
      7711.70000	      5.70210e-19	
      7713.60000	      1.00087e-18	
      7715.50000	      2.81775e-18	
      7717.40000	      2.24178e-18	
      7719.30000	      1.37598e-18	
      7721.20000	      3.08652e-18	
      7723.10000	      1.98834e-18	
      7725.00000	      2.55848e-18	
      7726.90000	      4.52895e-18	
      7728.80000	      2.72930e-18	
      7730.70000	      2.35736e-18	
      7732.60000	      2.84588e-18	
      7734.50000	      3.15443e-18	
      7736.40000	      3.20046e-18	
      7738.30000	      2.96641e-18	
      7740.20000	      3.88302e-18	
      7742.10000	      4.22085e-18	
      7744.00000	      4.40788e-18	
      7745.90000	      4.10401e-18	
      7747.80000	      3.76790e-18	
      7749.70000	      3.84510e-18	
      7751.60000	      3.87355e-18	
      7753.50000	      4.51757e-18	
      7755.40000	      3.70680e-18	
      7757.30000	      2.41640e-18	
      7759.20000	      2.84279e-18	
      7761.10000	      3.64417e-18	
      7763.00000	      4.41358e-18	
      7764.90000	      4.93291e-18	
      7766.80000	      5.36967e-18	
      7768.70000	      4.75882e-18	
      7770.60000	      5.29068e-18	
      7772.50000	      4.02319e-18	
      7774.40000	      4.07511e-18	
      7776.30000	      4.12938e-18	
      7778.20000	      4.11360e-18	
      7780.10000	      3.98304e-18	
      7782.00000	      4.03303e-18	
      7783.90000	      3.70232e-18	
      7785.80000	      3.97427e-18	
      7787.70000	      3.69742e-18	
      7789.60000	      4.06550e-18	
      7791.50000	      3.81650e-18	
      7793.40000	      2.60206e-18	
      7795.30000	      1.33092e-18	
      7797.20000	      2.17335e-18	
      7799.10000	      3.99959e-18	
      7801.00000	      4.91281e-18	
      7802.90000	      5.11753e-18	
      7804.80000	      4.19756e-18	
      7806.70000	      4.46710e-18	
      7808.60000	      4.75502e-18	
      7810.50000	      4.14324e-18	
      7812.40000	      4.68775e-18	
      7814.30000	      6.68690e-18	
      7816.20000	      6.14606e-18	
      7818.10000	      4.55791e-18	
      7820.00000	      4.83785e-18	
      7821.90000	      4.74451e-18	
      7823.80000	      4.50209e-18	
      7825.70000	      5.09390e-18	
      7827.60000	      5.97074e-18	
      7829.50000	      4.00440e-18	
      7831.40000	      4.54759e-18	
      7833.30000	      5.97065e-18	
      7835.20000	      5.09211e-18	
      7837.10000	      5.56374e-18	
      7839.00000	      5.85979e-18	
      7840.90000	      6.10145e-18	
      7842.80000	      6.77005e-18	
      7844.70000	      5.45002e-18	
      7846.60000	      6.76387e-18	
      7848.50000	      6.56360e-18	
      7850.40000	      4.33188e-18	
      7852.30000	      5.60884e-18	
      7854.20000	      5.12294e-18	
      7856.10000	      5.30496e-18	
      7858.00000	      6.23543e-18	
      7859.90000	      4.95210e-18	
      7861.80000	      5.22187e-18	
      7863.70000	      6.98211e-18	
      7865.60000	      7.50086e-18	
      7867.50000	      7.05806e-18	
      7869.40000	      7.61394e-18	
      7871.30000	      8.21596e-18	
      7873.20000	      7.35634e-18	
      7875.10000	      6.56563e-18	
      7877.00000	      7.31954e-18	
      7878.90000	      8.00158e-18	
      7880.80000	      8.16189e-18	
      7882.70000	      7.09897e-18	
      7884.60000	      5.26481e-18	
      7886.50000	      5.35932e-18	
      7888.40000	      6.52839e-18	
      7890.30000	      5.76391e-18	
      7892.20000	      6.00948e-18	
      7894.10000	      6.24489e-18	
      7896.00000	      6.32543e-18	
      7897.90000	      5.59152e-18	
      7899.80000	      6.49881e-18	
      7901.70000	      7.18525e-18	
      7903.60000	      6.46536e-18	
      7905.50000	      7.35330e-18	
      7907.40000	      8.06068e-18	
      7909.30000	      8.11609e-18	
      7911.20000	      7.53544e-18	
      7913.10000	      6.32348e-18	
      7915.00000	      7.52805e-18	
      7916.90000	      5.31166e-18	
      7918.80000	      5.71397e-18	
      7920.70000	      5.98090e-18	
      7922.60000	      7.06491e-18	
      7924.50000	      7.89201e-18	
      7926.40000	      6.96031e-18	
      7928.30000	      6.68883e-18	
      7930.20000	      6.47753e-18	
      7932.10000	      6.12818e-18	
      7934.00000	      7.05420e-18	
      7935.90000	      7.80553e-18	
      7937.80000	      7.11422e-18	
      7939.70000	      6.12549e-18	
      7941.60000	      6.01583e-18	
      7943.50000	      4.73608e-18	
      7945.40000	      3.84814e-18	
      7947.30000	      6.50822e-18	
      7949.20000	      7.55922e-18	
      7951.10000	      7.14656e-18	
      7953.00000	      8.36613e-18	
      7954.90000	      7.52155e-18	
      7956.80000	      6.12492e-18	
      7958.70000	      6.30186e-18	
      7960.60000	      7.33009e-18	
      7962.50000	      9.22950e-18	
      7964.40000	      7.49129e-18	
      7966.30000	      7.39041e-18	
      7968.20000	      7.52203e-18	
      7970.10000	      7.68769e-18	
      7972.00000	      8.30008e-18	
      7973.90000	      9.00521e-18	
      7975.80000	      8.23339e-18	
      7977.70000	      7.55909e-18	
      7979.60000	      8.02201e-18	
      7981.50000	      9.28529e-18	
      7983.40000	      9.09595e-18	
      7985.30000	      8.78141e-18	
      7987.20000	      8.03984e-18	
      7989.10000	      1.00342e-17	
      7991.00000	      1.10926e-17	
      7992.90000	      9.87347e-18	
      7994.80000	      8.36725e-18	
      7996.70000	      7.57237e-18	
      7998.60000	      7.05162e-18	
      8000.50000	      8.60768e-18	
      8002.40000	      8.46179e-18	
      8004.30000	      7.29238e-18	
      8006.20000	      9.07349e-18	
      8008.10000	      8.86814e-18	
      8010.00000	      8.90992e-18	
      8011.90000	      8.82927e-18	
      8013.80000	      8.64161e-18	
      8015.70000	      8.93707e-18	
      8017.60000	      9.49101e-18	
      8019.50000	      8.28772e-18	
      8021.40000	      6.90493e-18	
      8023.30000	      9.63714e-18	
      8025.20000	      1.02768e-17	
      8027.10000	      9.86192e-18	
      8029.00000	      8.55674e-18	
      8030.90000	      9.03725e-18	
      8032.80000	      8.58043e-18	
      8034.70000	      8.44206e-18	
      8036.60000	      9.84669e-18	
      8038.50000	      1.07818e-17	
      8040.40000	      1.13526e-17	
      8042.30000	      9.87146e-18	
      8044.20000	      1.03293e-17	
      8046.10000	      9.32082e-18	
      8048.00000	      9.55325e-18	
      8049.90000	      9.28902e-18	
      8051.80000	      8.74294e-18	
      8053.70000	      9.31384e-18	
      8055.60000	      8.81791e-18	
      8057.50000	      9.08776e-18	
      8059.40000	      1.05655e-17	
      8061.30000	      1.06697e-17	
      8063.20000	      1.23666e-17	
      8065.10000	      1.15982e-17	
      8067.00000	      1.02113e-17	
      8068.90000	      1.04638e-17	
      8070.80000	      1.01440e-17	
      8072.70000	      1.16207e-17	
      8074.60000	      1.32952e-17	
      8076.50000	      1.21416e-17	
      8078.40000	      1.23670e-17	
      8080.30000	      1.08909e-17	
      8082.20000	      1.06258e-17	
      8084.10000	      1.11128e-17	
      8086.00000	      1.06376e-17	
      8087.90000	      1.07378e-17	
      8089.80000	      1.05435e-17	
      8091.70000	      1.17994e-17	
      8093.60000	      1.18246e-17	
      8095.50000	      9.94400e-18	
      8097.40000	      1.02467e-17	
      8099.30000	      1.07870e-17	
      8101.20000	      1.13424e-17	
      8103.10000	      1.06962e-17	
      8105.00000	      1.06392e-17	
      8106.90000	      1.16771e-17	
      8108.80000	      1.07022e-17	
      8110.70000	      1.10648e-17	
      8112.60000	      1.15908e-17	
      8114.50000	      1.16558e-17	
      8116.40000	      1.14136e-17	
      8118.30000	      1.10834e-17	
      8120.20000	      1.10877e-17	
      8122.10000	      1.26881e-17	
      8124.00000	      1.25708e-17	
      8125.90000	      1.16030e-17	
      8127.80000	      1.15801e-17	
      8129.70000	      1.20063e-17	
      8131.60000	      1.18845e-17	
      8133.50000	      1.12812e-17	
      8135.40000	      1.24792e-17	
      8137.30000	      1.37624e-17	
      8139.20000	      1.16512e-17	
      8141.10000	      1.14825e-17	
      8143.00000	      1.15531e-17	
      8144.90000	      1.19662e-17	
      8146.80000	      1.20069e-17	
      8148.70000	      1.27274e-17	
      8150.60000	      1.13739e-17	
      8152.50000	      1.18571e-17	
      8154.40000	      1.16013e-17	
      8156.30000	      1.15476e-17	
      8158.20000	      1.11392e-17	
      8160.10000	      1.23449e-17	
      8162.00000	      1.24820e-17	
      8163.90000	      1.25255e-17	
      8165.80000	      1.10396e-17	
      8167.70000	      1.15797e-17	
      8169.60000	      1.22032e-17	
      8171.50000	      1.23727e-17	
      8173.40000	      1.23841e-17	
      8175.30000	      1.17495e-17	
      8177.20000	      1.01128e-17	
      8179.10000	      1.02545e-17	
      8181.00000	      1.11855e-17	
      8182.90000	      1.31537e-17	
      8184.80000	      1.29836e-17	
      8186.70000	      1.07248e-17	
      8188.60000	      9.02615e-18	
      8190.50000	      9.17068e-18	
      8192.40000	      1.00615e-17	
      8194.30000	      1.09195e-17	
      8196.20000	      1.27453e-17	
      8198.10000	      1.30798e-17	
      8200.00000	      1.23017e-17	
      8201.90000	      1.29078e-17	
      8203.80000	      1.33939e-17	
      8205.70000	      1.36933e-17	
      8207.60000	      1.42152e-17	
      8209.50000	      1.33265e-17	
      8211.40000	      1.29892e-17	
      8213.30000	      1.35033e-17	
      8215.20000	      1.35966e-17	
      8217.10000	      1.30705e-17	
      8219.00000	      1.28641e-17	
      8220.90000	      1.45192e-17	
      8222.80000	      1.59688e-17	
      8224.70000	      1.55112e-17	
      8226.60000	      1.45723e-17	
      8228.50000	      1.32638e-17	
      8230.40000	      1.32274e-17	
      8232.30000	      1.42606e-17	
      8234.20000	      1.31797e-17	
      8236.10000	      1.46548e-17	
      8238.00000	      1.49848e-17	
      8239.90000	      1.40471e-17	
      8241.80000	      1.44106e-17	
      8243.70000	      1.42792e-17	
      8245.60000	      1.49792e-17	
      8247.50000	      1.44125e-17	
      8249.40000	      1.31771e-17	
      8251.30000	      1.40137e-17	
      8253.20000	      1.37314e-17	
      8255.10000	      1.38685e-17	
      8257.00000	      1.45849e-17	
      8258.90000	      1.44096e-17	
      8260.80000	      1.47831e-17	
      8262.70000	      1.59821e-17	
      8264.60000	      1.48891e-17	
      8266.50000	      1.42925e-17	
      8268.40000	      1.56557e-17	
      8270.30000	      1.54891e-17	
      8272.20000	      1.59914e-17	
      8274.10000	      1.48396e-17	
      8276.00000	      1.66522e-17	
      8277.90000	      1.39592e-17	
      8279.80000	      1.48425e-17	
      8281.70000	      1.35905e-17	
      8283.60000	      1.51761e-17	
      8285.50000	      1.68480e-17	
      8287.40000	      1.39374e-17	
      8289.30000	      1.25641e-17	
      8291.20000	      1.33007e-17	
      8293.10000	      1.35597e-17	
      8295.00000	      1.39739e-17	
      8296.90000	      1.47639e-17	
      8298.80000	      1.50913e-17	
      8300.70000	      1.36821e-17	
      8302.60000	      1.46147e-17	
      8304.50000	      1.45924e-17	
      8306.40000	      1.42156e-17	
      8308.30000	      1.37337e-17	
      8310.20000	      1.37805e-17	
      8312.10000	      1.36104e-17	
      8314.00000	      1.51836e-17	
      8315.90000	      1.49797e-17	
      8317.80000	      1.49820e-17	
      8319.70000	      1.38460e-17	
      8321.60000	      1.47565e-17	
      8323.50000	      1.48554e-17	
      8325.40000	      1.38017e-17	
      8327.30000	      1.51180e-17	
      8329.20000	      1.50195e-17	
      8331.10000	      1.51429e-17	
      8333.00000	      1.60734e-17	
      8334.90000	      1.70882e-17	
      8336.80000	      1.82079e-17	
      8338.70000	      1.59036e-17	
      8340.60000	      1.64035e-17	
      8342.50000	      1.34115e-17	
      8344.40000	      1.46462e-17	
      8346.30000	      1.52538e-17	
      8348.20000	      1.54723e-17	
      8350.10000	      1.46923e-17	
      8352.00000	      1.53589e-17	
      8353.90000	      1.47768e-17	
      8355.80000	      1.53124e-17	
      8357.70000	      1.54394e-17	
      8359.60000	      1.62356e-17	
      8361.50000	      1.49455e-17	
      8363.40000	      1.45422e-17	
      8365.30000	      1.47498e-17	
      8367.20000	      1.52674e-17	
      8369.10000	      1.52306e-17	
      8371.00000	      1.58357e-17	
      8372.90000	      1.62833e-17	
      8374.80000	      1.70673e-17	
      8376.70000	      1.68083e-17	
      8378.60000	      1.55169e-17	
      8380.50000	      1.56840e-17	
      8382.40000	      1.62027e-17	
      8384.30000	      1.54702e-17	
      8386.20000	      1.51483e-17	
      8388.10000	      1.52147e-17	
      8390.00000	      1.65885e-17	
      8391.90000	      1.70726e-17	
      8393.80000	      1.67541e-17	
      8395.70000	      1.62312e-17	
      8397.60000	      1.76286e-17	
      8399.50000	      1.76561e-17	
      8401.40000	      1.66972e-17	
      8403.30000	      1.68198e-17	
      8405.20000	      1.72406e-17	
      8407.10000	      1.50977e-17	
      8409.00000	      1.64484e-17	
      8410.90000	      1.92150e-17	
      8412.80000	      1.56644e-17	
      8414.70000	      1.48455e-17	
      8416.60000	      1.69432e-17	
      8418.50000	      1.71669e-17	
      8420.40000	      1.85117e-17	
      8422.30000	      1.79716e-17	
      8424.20000	      1.47168e-17	
      8426.10000	      1.34750e-17	
      8428.00000	      1.47211e-17	
      8429.90000	      1.73396e-17	
      8431.80000	      1.67405e-17	
      8433.70000	      1.57014e-17	
      8435.60000	      1.52739e-17	
      8437.50000	      1.51998e-17	
      8439.40000	      1.63056e-17	
      8441.30000	      1.56616e-17	
      8443.20000	      1.42578e-17	
      8445.10000	      1.45902e-17	
      8447.00000	      1.58581e-17	
      8448.90000	      1.57907e-17	
      8450.80000	      1.56100e-17	
      8452.70000	      1.51949e-17	
      8454.60000	      1.43906e-17	
      8456.50000	      1.74471e-17	
      8458.40000	      1.68900e-17	
      8460.30000	      1.43628e-17	
      8462.20000	      1.30039e-17	
      8464.10000	      1.57546e-17	
      8466.00000	      1.50822e-17	
      8467.90000	      1.63366e-17	
      8469.80000	      1.60750e-17	
      8471.70000	      1.42392e-17	
      8473.60000	      1.38956e-17	
      8475.50000	      1.54525e-17	
      8477.40000	      1.36981e-17	
      8479.30000	      1.29658e-17	
      8481.20000	      1.53990e-17	
      8483.10000	      1.51167e-17	
      8485.00000	      1.55680e-17	
      8486.90000	      1.54456e-17	
      8488.80000	      1.67086e-17	
      8490.70000	      1.46718e-17	
      8492.60000	      1.57284e-17	
      8494.50000	      1.55739e-17	
      8496.40000	      1.26783e-17	
      8498.30000	      1.33441e-17	
      8500.20000	      1.70538e-17	
      8502.10000	      1.70702e-17	
      8504.00000	      1.53478e-17	
      8505.90000	      1.40257e-17	
      8507.80000	      1.50842e-17	
      8509.70000	      1.54830e-17	
      8511.60000	      1.38231e-17	
      8513.50000	      1.27997e-17	
      8515.40000	      1.34963e-17	
      8517.30000	      1.32407e-17	
      8519.20000	      1.31250e-17	
      8521.10000	      1.47003e-17	
      8523.00000	      1.47572e-17	
      8524.90000	      1.59489e-17	
      8526.80000	      1.66590e-17	
      8528.70000	      1.62175e-17	
      8530.60000	      1.71067e-17	
      8532.50000	      1.54461e-17	
      8534.40000	      1.67799e-17	
      8536.30000	      1.66059e-17	
      8538.20000	      1.67500e-17	
      8540.10000	      1.79656e-17	
      8542.00000	      1.76212e-17	
      8543.90000	      1.69600e-17	
      8545.80000	      1.78614e-17	
      8547.70000	      1.68263e-17	
      8549.60000	      1.72036e-17	
      8551.50000	      1.72545e-17	
      8553.40000	      1.66825e-17	
      8555.30000	      1.85693e-17	
      8557.20000	      1.81854e-17	
      8559.10000	      1.69172e-17	
      8561.00000	      1.51800e-17	
      8562.90000	      1.67554e-17	
      8564.80000	      1.68146e-17	
      8566.70000	      1.73447e-17	
      8568.60000	      1.71228e-17	
      8570.50000	      1.58919e-17	
      8572.40000	      1.62734e-17	
      8574.30000	      1.79201e-17	
      8576.20000	      1.82588e-17	
      8578.10000	      1.82626e-17	
      8580.00000	      1.73565e-17	
      8581.90000	      1.60736e-17	
      8583.80000	      1.57588e-17	
      8585.70000	      1.73836e-17	
      8587.60000	      1.80127e-17	
      8589.50000	      1.80965e-17	
      8591.40000	      1.67867e-17	
      8593.30000	      1.89684e-17	
      8595.20000	      1.79175e-17	
      8597.10000	      1.73353e-17	
      8599.00000	      1.90097e-17	
      8600.90000	      1.71596e-17	
      8602.80000	      1.76211e-17	
      8604.70000	      1.51213e-17	
      8606.60000	      1.32883e-17	
      8608.50000	      1.28104e-17	
      8610.40000	      1.12493e-17	
      8612.30000	      1.14559e-17	
      8614.20000	      1.01039e-17	
      8616.10000	      9.41884e-18	
      8618.00000	      1.05096e-17	
      8619.90000	      9.36020e-18	
      8621.80000	      1.07988e-17	
      8623.70000	      1.13446e-17	
      8625.60000	      9.91271e-18	
      8627.50000	      1.23422e-17	
      8629.40000	      9.21814e-18	
      8631.30000	      9.73430e-18	
      8633.20000	      9.58438e-18	
      8635.10000	      1.03473e-17	
      8637.00000	      1.20268e-17	
      8638.90000	      1.17180e-17	
      8640.80000	      1.12915e-17	
      8642.70000	      1.07543e-17	
      8644.60000	      1.16455e-17	
      8646.50000	      1.21922e-17	
      8648.40000	      1.22647e-17	
      8650.30000	      1.29647e-17	
      8652.20000	      1.36277e-17	
      8654.10000	      1.39726e-17	
      8656.00000	      1.48526e-17	
      8657.90000	      1.39069e-17	
      8659.80000	      1.46977e-17	
      8661.70000	      1.40866e-17	
      8663.60000	      1.24997e-17	
      8665.50000	      1.44503e-17	
      8667.40000	      1.53186e-17	
      8669.30000	      1.39448e-17	
      8671.20000	      1.28416e-17	
      8673.10000	      1.45782e-17	
      8675.00000	      1.45528e-17	
      8676.90000	      1.34119e-17	
      8678.80000	      1.26285e-17	
      8680.70000	      1.35693e-17	
      8682.60000	      1.35007e-17	
      8684.50000	      1.31709e-17	
      8686.40000	      1.44253e-17	
      8688.30000	      1.12826e-17	
      8690.20000	      9.16764e-18	
      8692.10000	      9.99145e-18	
      8694.00000	      1.17339e-17	
      8695.90000	      1.14908e-17	
      8697.80000	      1.12798e-17	
      8699.70000	      1.08227e-17	
      8701.60000	      1.09879e-17	
      8703.50000	      1.06712e-17	
      8705.40000	      1.06079e-17	
      8707.30000	      1.13959e-17	
      8709.20000	      1.04993e-17	
      8711.10000	      9.11755e-18	
      8713.00000	      9.74526e-18	
      8714.90000	      1.00015e-17	
      8716.80000	      1.11453e-17	
      8718.70000	      1.13001e-17	
      8720.60000	      1.10490e-17	
      8722.50000	      1.10764e-17	
      8724.40000	      1.23506e-17	
      8726.30000	      1.18801e-17	
      8728.20000	      1.15839e-17	
      8730.10000	      1.14690e-17	
      8732.00000	      1.22115e-17	
      8733.90000	      1.24299e-17	
      8735.80000	      1.24756e-17	
      8737.70000	      1.17995e-17	
      8739.60000	      1.26347e-17	
      8741.50000	      1.31957e-17	
      8743.40000	      1.25613e-17	
      8745.30000	      1.16934e-17	
      8747.20000	      1.15984e-17	
      8749.10000	      1.17068e-17	
      8751.00000	      1.13533e-17	
      8752.90000	      1.26061e-17	
      8754.80000	      1.35717e-17	
      8756.70000	      1.41193e-17	
      8758.60000	      9.81253e-18	
      8760.50000	      9.54731e-18	
      8762.40000	      1.16638e-17	
      8764.30000	      1.14303e-17	
      8766.20000	      1.23167e-17	
      8768.10000	      1.38152e-17	
      8770.00000	      1.72044e-17	
      8771.90000	      1.79966e-17	
      8773.80000	      1.78003e-17	
      8775.70000	      1.34931e-17	
      8777.60000	      1.27482e-17	
      8779.50000	      1.34981e-17	
      8781.40000	      1.41374e-17	
      8783.30000	      1.34713e-17	
      8785.20000	      1.23683e-17	
      8787.10000	      1.46800e-17	
      8789.00000	      1.38400e-17	
      8790.90000	      1.53891e-17	
      8792.80000	      1.58704e-17	
      8794.70000	      1.53789e-17	
      8796.60000	      1.30281e-17	
      8798.50000	      1.28709e-17	
      8800.40000	      1.33292e-17	
      8802.30000	      1.27048e-17	
      8804.20000	      1.26835e-17	
      8806.10000	      1.24650e-17	
      8808.00000	      1.34827e-17	
      8809.90000	      1.79841e-17	
      8811.80000	      1.72359e-17	
      8813.70000	      1.72036e-17	
      8815.60000	      1.63134e-17	
      8817.50000	      1.92329e-17	
      8819.40000	      1.70870e-17	
      8821.30000	      1.71276e-17	
      8823.20000	      1.74789e-17	
      8825.10000	      1.42229e-17	
      8827.00000	      1.31638e-17	
      8828.90000	      1.49165e-17	
      8830.80000	      1.49680e-17	
      8832.70000	      1.76038e-17	
      8834.60000	      1.84455e-17	
      8836.50000	      1.75246e-17	
      8838.40000	      1.56598e-17	
      8840.30000	      1.59662e-17	
      8842.20000	      1.66417e-17	
      8844.10000	      1.50840e-17	
      8846.00000	      1.71022e-17	
      8847.90000	      1.63236e-17	
      8849.80000	      1.48897e-17	
      8851.70000	      1.54589e-17	
      8853.60000	      1.74853e-17	
      8855.50000	      1.56697e-17	
      8857.40000	      1.40939e-17	
      8859.30000	      1.63235e-17	
      8861.20000	      1.68044e-17	
      8863.10000	      1.65676e-17	
      8865.00000	      1.44689e-17	
      8866.90000	      1.33630e-17	
      8868.80000	      1.43097e-17	
      8870.70000	      1.42032e-17	
      8872.60000	      1.65167e-17	
      8874.50000	      1.97467e-17	
      8876.40000	      1.97626e-17	
      8878.30000	      1.85440e-17	
      8880.20000	      1.92414e-17	
      8882.10000	      2.03937e-17	
      8884.00000	      1.57242e-17	
      8885.90000	      1.66453e-17	
      8887.80000	      1.89156e-17	
      8889.70000	      1.63933e-17	
      8891.60000	      1.53785e-17	
      8893.50000	      1.58535e-17	
      8895.40000	      1.86884e-17	
      8897.30000	      2.06570e-17	
      8899.20000	      1.81576e-17	
      8901.10000	      1.87660e-17	
      8903.00000	      1.89987e-17	
      8904.90000	      1.68851e-17	
      8906.80000	      1.61713e-17	
      8908.70000	      1.79170e-17	
      8910.60000	      1.93544e-17	
      8912.50000	      2.11886e-17	
      8914.40000	      2.06695e-17	
      8916.30000	      1.73576e-17	
      8918.20000	      1.97223e-17	
      8920.10000	      1.63004e-17	
      8922.00000	      1.48211e-17	
      8923.90000	      1.48684e-17	
      8925.80000	      1.65879e-17	
      8927.70000	      1.88426e-17	
      8929.60000	      1.91999e-17	
      8931.50000	      2.03240e-17	
      8933.40000	      1.74324e-17	
      8935.30000	      1.81457e-17	
      8937.20000	      1.52210e-17	
      8939.10000	      1.35187e-17	
      8941.00000	      1.53809e-17	
      8942.90000	      1.43924e-17	
      8944.80000	      1.54902e-17	
      8946.70000	      1.52386e-17	
      8948.60000	      1.83678e-17	
      8950.50000	      2.08879e-17	
      8952.40000	      1.98478e-17	
      8954.30000	      2.08871e-17	
      8956.20000	      1.90735e-17	
      8958.10000	      1.81054e-17	
      8960.00000	      1.75897e-17	
      8961.90000	      1.76508e-17	
      8963.80000	      1.78649e-17	
      8965.70000	      1.92253e-17	
      8967.60000	      1.94021e-17	
      8969.50000	      1.85622e-17	
      8971.40000	      2.04344e-17	
      8973.30000	      2.10628e-17	
      8975.20000	      1.88796e-17	
      8977.10000	      2.11301e-17	
      8979.00000	      2.15390e-17	
      8980.90000	      2.07538e-17	
      8982.80000	      2.19690e-17	
      8984.70000	      2.20062e-17	
      8986.60000	      1.95810e-17	
      8988.50000	      2.05376e-17	
      8990.40000	      1.95288e-17	
      8992.30000	      1.95071e-17	
      8994.20000	      1.85222e-17	
      8996.10000	      1.65128e-17	
      8998.00000	      2.00144e-17	
      8999.90000	      2.04909e-17	
      9001.80000	      2.22477e-17	
      9003.70000	      2.33241e-17	
      9005.60000	      2.25333e-17	
      9007.50000	      2.29783e-17	
      9009.40000	      2.32400e-17	
      9011.30000	      2.23197e-17	
      9013.20000	      2.15648e-17	
      9015.10000	      2.18213e-17	
      9017.00000	      2.18323e-17	
      9018.90000	      1.97909e-17	
      9020.80000	      1.79189e-17	
      9022.70000	      1.63730e-17	
      9024.60000	      1.82209e-17	
      9026.50000	      1.90230e-17	
      9028.40000	      2.05211e-17	
      9030.30000	      2.05314e-17	
      9032.20000	      2.10413e-17	
      9034.10000	      2.32339e-17	
      9036.00000	      2.29649e-17	
      9037.90000	      2.09981e-17	
      9039.80000	      2.09533e-17	
      9041.70000	      2.04084e-17	
      9043.60000	      1.87297e-17	
      9045.50000	      1.98643e-17	
      9047.40000	      2.11317e-17	
      9049.30000	      2.22370e-17	
      9051.20000	      2.25094e-17	
      9053.10000	      2.10021e-17	
      9055.00000	      2.13379e-17	
      9056.90000	      2.02634e-17	
      9058.80000	      1.90974e-17	
      9060.70000	      1.98517e-17	
      9062.60000	      1.90221e-17	
      9064.50000	      1.80724e-17	
      9066.40000	      2.04624e-17	
      9068.30000	      1.98077e-17	
      9070.20000	      1.95192e-17	
      9072.10000	      2.04448e-17	
      9074.00000	      1.96288e-17	
      9075.90000	      2.11798e-17	
      9077.80000	      2.35633e-17	
      9079.70000	      2.25378e-17	
      9081.60000	      2.21488e-17	
      9083.50000	      2.21378e-17	
      9085.40000	      2.16045e-17	
      9087.30000	      2.37458e-17	
      9089.20000	      2.39577e-17	
      9091.10000	      2.18143e-17	
      9093.00000	      2.28366e-17	
      9094.90000	      2.23351e-17	
      9096.80000	      2.15880e-17	
      9098.70000	      2.31278e-17	
      9100.60000	      2.26252e-17	
      9102.50000	      2.15608e-17	
      9104.40000	      2.17925e-17	
      9106.30000	      2.24016e-17	
      9108.20000	      2.27092e-17	
      9110.10000	      2.42178e-17	
      9112.00000	      2.42104e-17	
      9113.90000	      2.33318e-17	
      9115.80000	      2.52542e-17	
      9117.70000	      2.51706e-17	
      9119.60000	      2.40350e-17	
      9121.50000	      2.43950e-17	
      9123.40000	      2.28363e-17	
      9125.30000	      2.42261e-17	
      9127.20000	      2.42938e-17	
      9129.10000	      2.42121e-17	
      9131.00000	      2.63886e-17	
      9132.90000	      2.37242e-17	
      9134.80000	      2.23792e-17	
      9136.70000	      2.26877e-17	
      9138.60000	      2.34178e-17	
      9140.50000	      2.35001e-17	
      9142.40000	      2.28505e-17	
      9144.30000	      2.53349e-17	
      9146.20000	      2.49523e-17	
      9148.10000	      2.48612e-17	
      9150.00000	      2.67329e-17	
      9151.90000	      2.50676e-17	
      9153.80000	      2.63736e-17	
      9155.70000	      2.67858e-17	
      9157.60000	      2.57390e-17	
      9159.50000	      2.69040e-17	
      9161.40000	      2.79747e-17	
      9163.30000	      2.58800e-17	
      9165.20000	      2.70807e-17	
      9167.10000	      2.65651e-17	
      9169.00000	      2.83681e-17	
      9170.90000	      3.02596e-17	
      9172.80000	      2.73138e-17	
      9174.70000	      2.37737e-17	
      9176.60000	      2.59193e-17	
      9178.50000	      2.90609e-17	
      9180.40000	      2.51792e-17	
      9182.30000	      2.60017e-17	
      9184.20000	      2.75863e-17	
      9186.10000	      2.83334e-17	
      9188.00000	      2.69189e-17	
      9189.90000	      2.60495e-17	
      9191.80000	      2.79004e-17	
      9193.70000	      2.95807e-17	
      9195.60000	      2.99348e-17	
      9197.50000	      2.74058e-17	
      9199.40000	      2.83026e-17	
      9201.30000	      3.08260e-17	
      9203.20000	      2.97163e-17	
      9205.10000	      2.72705e-17	
      9207.00000	      2.67778e-17	
      9208.90000	      2.55493e-17	
      9210.80000	      2.66471e-17	
      9212.70000	      2.81170e-17	
      9214.60000	      2.87335e-17	
      9216.50000	      2.77268e-17	
      9218.40000	      2.70884e-17	
      9220.30000	      2.82063e-17	
      9222.20000	      2.57541e-17	
      9224.10000	      2.54261e-17	
      9226.00000	      2.63698e-17	
      9227.90000	      3.00378e-17	
      9229.80000	      2.67867e-17	
      9231.70000	      2.50925e-17	
      9233.60000	      2.52074e-17	
      9235.50000	      2.47804e-17	
      9237.40000	      2.76357e-17	
      9239.30000	      2.69714e-17	
      9241.20000	      2.91517e-17	
      9243.10000	      3.06824e-17	
      9245.00000	      2.94969e-17	
      9246.90000	      2.83047e-17	
      9248.80000	      2.77185e-17	
      9250.70000	      2.62861e-17	
      9252.60000	      3.05281e-17	
      9254.50000	      2.87523e-17	
      9256.40000	      2.98476e-17	
      9258.30000	      2.78700e-17	
      9260.20000	      2.72851e-17	
      9262.10000	      2.87268e-17	
      9264.00000	      3.06604e-17	
      9265.90000	      3.19125e-17	
      9267.80000	      2.84812e-17	
      9269.70000	      2.82839e-17	
      9271.60000	      2.97536e-17	
      9273.50000	      2.69832e-17	
      9275.40000	      2.67372e-17	
      9277.30000	      2.52543e-17	
      9279.20000	      2.67871e-17	
      9281.10000	      2.94015e-17	
      9283.00000	      3.06080e-17	
      9284.90000	      2.82484e-17	
      9286.80000	      2.79251e-17	
      9288.70000	      2.59824e-17	
      9290.60000	      2.87105e-17	
      9292.50000	      2.73420e-17	
      9294.40000	      2.43879e-17	
      9296.30000	      2.67890e-17	
      9298.20000	      2.77188e-17	
      9300.10000	      2.53990e-17	
      9302.00000	      2.19982e-17	
      9303.90000	      2.69425e-17	
      9305.80000	      2.84951e-17	
      9307.70000	      2.91464e-17	
      9309.60000	      2.87714e-17	
      9311.50000	      3.56440e-17	
      9313.40000	      3.03848e-17	
      9315.30000	      2.50682e-17	
      9317.20000	      2.91266e-17	
      9319.10000	      2.78779e-17	
      9321.00000	      2.46280e-17	
      9322.90000	      2.58743e-17	
      9324.80000	      2.56409e-17	
      9326.70000	      2.84088e-17	
      9328.60000	      2.71857e-17	
      9330.50000	      2.73954e-17	
      9332.40000	      2.70300e-17	
      9334.30000	      2.63471e-17	
      9336.20000	      2.76846e-17	
      9338.10000	      2.59885e-17	
      9340.00000	      2.60707e-17	
      9341.90000	      2.65584e-17	
      9343.80000	      2.94930e-17	
      9345.70000	      3.11693e-17	
      9347.60000	      2.77382e-17	
      9349.50000	      2.74560e-17	
      9351.40000	      2.74100e-17	
      9353.30000	      2.71258e-17	
      9355.20000	      2.48991e-17	
      9357.10000	      2.85102e-17	
      9359.00000	      2.92863e-17	
      9360.90000	      2.72939e-17	
      9362.80000	      3.29765e-17	
      9364.70000	      2.94324e-17	
      9366.60000	      2.84304e-17	
      9368.50000	      2.77759e-17	
      9370.40000	      2.98820e-17	
      9372.30000	      2.72239e-17	
      9374.20000	      2.60302e-17	
      9376.10000	      2.50831e-17	
      9378.00000	      3.15965e-17	
      9379.90000	      3.53248e-17	
      9381.80000	      2.69549e-17	
      9383.70000	      2.86066e-17	
      9385.60000	      2.77185e-17	
      9387.50000	      2.94971e-17	
      9389.40000	      3.14480e-17	
      9391.30000	      3.04749e-17	
      9393.20000	      3.02437e-17	
      9395.10000	      3.20457e-17	
      9397.00000	      3.07385e-17	
      9398.90000	      2.90312e-17	
      9400.80000	      3.38001e-17	
      9402.70000	      3.19732e-17	
      9404.60000	      3.13313e-17	
      9406.50000	      3.15540e-17	
      9408.40000	      3.47630e-17	
      9410.30000	      3.33886e-17	
      9412.20000	      3.11562e-17	
      9414.10000	      3.32684e-17	
      9416.00000	      3.35981e-17	
      9417.90000	      3.31089e-17	
      9419.80000	      3.43890e-17	
      9421.70000	      3.10487e-17	
      9423.60000	      2.80936e-17	
      9425.50000	      3.04808e-17	
      9427.40000	      3.02701e-17	
      9429.30000	      3.32450e-17	
      9431.20000	      3.49042e-17	
      9433.10000	      3.34038e-17	
      9435.00000	      3.14618e-17	
      9436.90000	      2.71755e-17	
      9438.80000	      2.89585e-17	
      9440.70000	      2.91313e-17	
      9442.60000	      3.02717e-17	
      9444.50000	      3.39033e-17	
      9446.40000	      3.22703e-17	
      9448.30000	      3.32744e-17	
      9450.20000	      3.06021e-17	
      9452.10000	      3.18137e-17	
      9454.00000	      3.75414e-17	
      9455.90000	      3.48216e-17	
      9457.80000	      3.41863e-17	
      9459.70000	      3.70241e-17	
      9461.60000	      3.27143e-17	
      9463.50000	      3.18037e-17	
      9465.40000	      3.65145e-17	
      9467.30000	      3.31150e-17	
      9469.20000	      3.01909e-17	
      9471.10000	      3.07767e-17	
      9473.00000	      2.91792e-17	
      9474.90000	      3.74425e-17	
      9476.80000	      4.21598e-17	
      9478.70000	      4.33968e-17	
      9480.60000	      4.27915e-17	
      9482.50000	      3.77212e-17	
      9484.40000	      3.49829e-17	
      9486.30000	      3.54492e-17	
      9488.20000	      3.46569e-17	
      9490.10000	      3.34817e-17	
      9492.00000	      3.51370e-17	
      9493.90000	      3.85737e-17	
      9495.80000	      3.81573e-17	
      9497.70000	      3.40228e-17	
      9499.60000	      3.49516e-17	
      9501.50000	      3.80884e-17	
      9503.40000	      3.53839e-17	
      9505.30000	      4.18848e-17	
      9507.20000	      4.17558e-17	
      9509.10000	      4.01417e-17	
      9511.00000	      3.42199e-17	
      9512.90000	      3.36065e-17	
      9514.80000	      3.74264e-17	
      9516.70000	      3.63470e-17	
      9518.60000	      3.25214e-17	
      9520.50000	      2.72773e-17	
      9522.40000	      3.52745e-17	
      9524.30000	      3.83189e-17	
      9526.20000	      3.76233e-17	
      9528.10000	      3.85353e-17	
      9530.00000	      3.85292e-17	
      9531.90000	      3.83248e-17	
      9533.80000	      4.09441e-17	
      9535.70000	      3.72671e-17	
      9537.60000	      3.89394e-17	
      9539.50000	      3.71737e-17	
      9541.40000	      3.76110e-17	
      9543.30000	      4.07033e-17	
      9545.20000	      3.99030e-17	
      9547.10000	      3.51088e-17	
      9549.00000	      3.47737e-17	
      9550.90000	      3.73416e-17	
      9552.80000	      3.88010e-17	
      9554.70000	      3.55570e-17	
      9556.60000	      3.90202e-17	
      9558.50000	      4.34712e-17	
      9560.40000	      3.92373e-17	
      9562.30000	      3.97020e-17	
      9564.20000	      4.18225e-17	
      9566.10000	      3.92278e-17	
      9568.00000	      4.48230e-17	
      9569.90000	      4.09546e-17	
      9571.80000	      3.91293e-17	
      9573.70000	      4.07427e-17	
      9575.60000	      4.03040e-17	
      9577.50000	      4.06432e-17	
      9579.40000	      4.07756e-17	
      9581.30000	      3.72425e-17	
      9583.20000	      3.86799e-17	
      9585.10000	      3.58366e-17	
      9587.00000	      3.58845e-17	
      9588.90000	      3.50342e-17	
      9590.80000	      3.55186e-17	
      9592.70000	      3.41425e-17	
      9594.60000	      3.72693e-17	
      9596.50000	      3.41674e-17	
      9598.40000	      3.66443e-17	
      9600.30000	      4.10488e-17	
      9602.20000	      3.73518e-17	
      9604.10000	      3.86398e-17	
      9606.00000	      4.20985e-17	
      9607.90000	      4.13149e-17	
      9609.80000	      3.87247e-17	
      9611.70000	      3.33262e-17	
      9613.60000	      3.54307e-17	
      9615.50000	      4.03298e-17	
      9617.40000	      3.96463e-17	
      9619.30000	      3.89217e-17	
      9621.20000	      4.20868e-17	
      9623.10000	      4.14026e-17	
      9625.00000	      3.80779e-17	
      9626.90000	      4.22255e-17	
      9628.80000	      3.98428e-17	
      9630.70000	      4.07973e-17	
      9632.60000	      3.77370e-17	
      9634.50000	      3.25557e-17	
      9636.40000	      3.36431e-17	
      9638.30000	      3.58178e-17	
      9640.20000	      3.82382e-17	
      9642.10000	      3.85183e-17	
      9644.00000	      3.61803e-17	
      9645.90000	      3.84394e-17	
      9647.80000	      3.85309e-17	
      9649.70000	      3.93819e-17	
      9651.60000	      4.16570e-17	
      9653.50000	      4.29515e-17	
      9655.40000	      3.79531e-17	
      9657.30000	      3.84781e-17	
      9659.20000	      4.05787e-17	
      9661.10000	      4.17569e-17	
      9663.00000	      4.32534e-17	
      9664.90000	      4.26211e-17	
      9666.80000	      4.22753e-17	
      9668.70000	      4.05010e-17	
      9670.60000	      3.76303e-17	
      9672.50000	      4.17717e-17	
      9674.40000	      4.53182e-17	
      9676.30000	      4.42317e-17	
      9678.20000	      4.12488e-17	
      9680.10000	      3.58914e-17	
      9682.00000	      3.86524e-17	
      9683.90000	      4.12168e-17	
      9685.80000	      3.76157e-17	
      9687.70000	      4.17117e-17	
      9689.60000	      4.46329e-17	
      9691.50000	      4.40686e-17	
      9693.40000	      5.00188e-17	
      9695.30000	      5.51034e-17	
      9697.20000	      5.10184e-17	
      9699.10000	      4.46088e-17	
      9701.00000	      4.01256e-17	
      9702.90000	      4.29392e-17	
      9704.80000	      4.11779e-17	
      9706.70000	      3.99863e-17	
      9708.60000	      4.05071e-17	
      9710.50000	      4.17445e-17	
      9712.40000	      4.48683e-17	
      9714.30000	      5.03536e-17	
      9716.20000	      5.00433e-17	
      9718.10000	      4.89684e-17	
      9720.00000	      5.36385e-17	
      9721.90000	      4.38892e-17	
      9723.80000	      4.22493e-17	
      9725.70000	      4.62856e-17	
      9727.60000	      4.58450e-17	
      9729.50000	      4.60349e-17	
      9731.40000	      5.01725e-17	
      9733.30000	      4.45710e-17	
      9735.20000	      4.71575e-17	
      9737.10000	      4.83445e-17	
      9739.00000	      4.23707e-17	
      9740.90000	      4.53885e-17	
      9742.80000	      4.00020e-17	
      9744.70000	      4.57101e-17	
      9746.60000	      5.07639e-17	
      9748.50000	      4.84407e-17	
      9750.40000	      4.46125e-17	
      9752.30000	      4.35123e-17	
      9754.20000	      4.83807e-17	
      9756.10000	      4.93913e-17	
      9758.00000	      5.36579e-17	
      9759.90000	      4.67462e-17	
      9761.80000	      4.49730e-17	
      9763.70000	      4.93482e-17	
      9765.60000	      4.77094e-17	
      9767.50000	      4.84356e-17	
      9769.40000	      4.78447e-17	
      9771.30000	      4.82909e-17	
      9773.20000	      4.95543e-17	
      9775.10000	      5.11949e-17	
      9777.00000	      5.55936e-17	
      9778.90000	      4.62662e-17	
      9780.80000	      4.63410e-17	
      9782.70000	      5.17860e-17	
      9784.60000	      4.71159e-17	
      9786.50000	      5.23309e-17	
      9788.40000	      5.16506e-17	
      9790.30000	      4.90621e-17	
      9792.20000	      5.02546e-17	
      9794.10000	      5.77168e-17	
      9796.00000	      5.45436e-17	
      9797.90000	      5.06442e-17	
      9799.80000	      5.31221e-17	
      9801.70000	      4.79765e-17	
      9803.60000	      4.97111e-17	
      9805.50000	      5.81248e-17	
      9807.40000	      5.86821e-17	
      9809.30000	      6.14549e-17	
      9811.20000	      5.77715e-17	
      9813.10000	      4.86765e-17	
      9815.00000	      5.25312e-17	
      9816.90000	      5.46913e-17	
      9818.80000	      5.05671e-17	
      9820.70000	      5.69234e-17	
      9822.60000	      5.77400e-17	
      9824.50000	      5.23709e-17	
      9826.40000	      5.40939e-17	
      9828.30000	      6.16257e-17	
      9830.20000	      5.96605e-17	
      9832.10000	      5.76777e-17	
      9834.00000	      5.39255e-17	
      9835.90000	      5.28997e-17	
      9837.80000	      5.67840e-17	
      9839.70000	      5.91853e-17	
      9841.60000	      5.57028e-17	
      9843.50000	      5.29723e-17	
      9845.40000	      5.60295e-17	
      9847.30000	      5.52166e-17	
      9849.20000	      5.52661e-17	
      9851.10000	      5.14254e-17	
      9853.00000	      4.89372e-17	
      9854.90000	      5.93288e-17	
      9856.80000	      6.72554e-17	
      9858.70000	      5.57237e-17	
      9860.60000	      5.22187e-17	
      9862.50000	      5.73887e-17	
      9864.40000	      5.56655e-17	
      9866.30000	      5.80559e-17	
      9868.20000	      5.93707e-17	
      9870.10000	      5.39641e-17	
      9872.00000	      5.08172e-17	
      9873.90000	      5.86739e-17	
      9875.80000	      5.21069e-17	
      9877.70000	      5.08091e-17	
      9879.60000	      6.05530e-17	
      9881.50000	      6.16605e-17	
      9883.40000	      6.48080e-17	
      9885.30000	      5.77633e-17	
      9887.20000	      5.93584e-17	
      9889.10000	      5.61714e-17	
      9891.00000	      6.02254e-17	
      9892.90000	      4.24717e-17	
      9894.80000	      4.66556e-17	
      9896.70000	      4.64530e-17	
      9898.60000	      4.61422e-17	
      9900.50000	      4.05844e-17	
      9902.40000	      3.53958e-17	
      9904.30000	      4.03513e-17	
      9906.20000	      4.44448e-17	
      9908.10000	      3.94161e-17	
      9910.00000	      2.15825e-17	
      9911.90000	      1.62359e-17	
      9913.80000	      1.96990e-17	
      9915.70000	      2.17847e-17	
      9917.60000	      1.57144e-17	
      9919.50000	      1.81021e-17	
      9921.40000	      2.01009e-17	
      9923.30000	      2.64568e-17	
      9925.20000	      3.56151e-17	
      9927.10000	      3.07459e-17	
      9929.00000	      3.07166e-17	
      9930.90000	      2.96460e-17	
      9932.80000	      3.00179e-17	
      9934.70000	      2.89167e-17	
      9936.60000	      3.12596e-17	
      9938.50000	      3.75446e-17	
      9940.40000	      5.03842e-17	
      9942.30000	      6.16214e-17	
      9944.20000	      5.23810e-17	
      9946.10000	      4.95056e-17	
      9948.00000	      5.79738e-17	
      9949.90000	      5.25753e-17	
      9951.80000	      5.02859e-17	
      9953.70000	      4.90628e-17	
      9955.60000	      4.41061e-17	
      9957.50000	      3.15689e-17	
      9959.40000	      3.27417e-17	
      9961.30000	      3.34549e-17	
      9963.20000	      3.93021e-17	
      9965.10000	      3.83538e-17	
      9967.00000	      4.11729e-17	
      9968.90000	      4.26662e-17	
      9970.80000	      3.71518e-17	
      9972.70000	      3.36627e-17	
      9974.60000	      3.40053e-17	
      9976.50000	      3.17524e-17	
      9978.40000	      3.04887e-17	
      9980.30000	      3.67659e-17	
      9982.20000	      4.32919e-17	
      9984.10000	      3.75314e-17	
      9986.00000	      4.05008e-17	
      9987.90000	      3.49896e-17	
      9989.80000	      4.11856e-17	
      9991.70000	      4.24891e-17	
      9993.60000	      3.77722e-17	
      9995.50000	      4.42611e-17	
      9997.40000	      4.28355e-17	
      9999.30000	      4.43753e-17	
     10001.20000	      4.88786e-17	
     10003.10000	      4.96237e-17	
     10005.00000	      3.79942e-17	
     10006.90000	      2.65133e-17	
     10008.80000	      2.27767e-17	
     10010.70000	      2.61639e-17	
     10012.60000	      4.37281e-17	
     10014.50000	      6.03152e-17	
     10016.40000	      6.32119e-17	
     10018.30000	      5.47534e-17	
     10020.20000	      8.27513e-17	
     10022.10000	      6.14053e-17	
     10024.00000	      3.70027e-17	
     10025.90000	      4.00101e-17	
     10027.80000	      4.53348e-17	
     10029.70000	      4.70360e-17	
     10031.60000	      4.40101e-17	
     10033.50000	      4.00498e-17	
     10035.40000	      4.39479e-17	
     10037.30000	      5.32591e-17	
     10039.20000	      6.30878e-17	
     10041.10000	      5.90738e-17	
     10043.00000	      5.68024e-17	
     10044.90000	      4.87354e-17	
     10046.80000	      4.07407e-17	
     10048.70000	      2.20365e-17	
     10050.60000	      3.74876e-17	
     10052.50000	      3.29588e-17	
     10054.40000	      3.42418e-17	
     10056.30000	      2.83120e-17	
     10058.20000	      2.95919e-17	
     10060.10000	      3.25159e-17	
     10062.00000	      4.45097e-17	
     10063.90000	      5.23854e-17	
     10065.80000	      4.89535e-17	
     10067.70000	      4.15788e-17	
     10069.60000	      4.48410e-17	
     10071.50000	      6.21661e-17	
     10073.40000	      6.34896e-17	
     10075.30000	      5.83655e-17	
     10077.20000	      5.98950e-17	
     10079.10000	      7.15153e-17	
     10081.00000	      7.31630e-17	
     10082.90000	      7.33699e-17	
     10084.80000	      6.75542e-17	
     10086.70000	      5.46752e-17	
     10088.60000	      4.67652e-17	
     10090.50000	      4.44786e-17	
     10092.40000	      5.03385e-17	
     10094.30000	      5.35605e-17	
     10096.20000	      7.53131e-17	
     10098.10000	      7.82211e-17	
#time:0.025429
