# Keck LRIS spectra of late-M, L and T dwarfs
# spty = M7  (Spectral type)
#
#     WAVELENGTH	#           FLUX	
#     (ANGSTROM)	#  (ERG/CM2/S/A)	
################	################	
      6360.00000	     0.00000e+00	
      6361.90095	     0.00000e+00	
      6363.80190	     0.00000e+00	
      6365.70285	     0.00000e+00	
      6367.60380	     8.55912e-18	
      6369.50475	     5.18658e-18	
      6371.40570	     3.71250e-18	
      6373.30665	     2.07026e-18	
      6375.20760	     3.65066e-18	
      6377.10855	     4.08779e-18	
      6379.00950	     4.44148e-18	
      6380.91046	     5.06347e-18	
      6382.81141	     8.46416e-18	
      6384.71236	     5.07964e-18	
      6386.61331	     3.23306e-18	
      6388.51426	     5.03737e-18	
      6390.41521	     4.86928e-18	
      6392.31616	     3.55828e-18	
      6394.21711	     8.28905e-18	
      6396.11806	     1.07252e-17	
      6398.01901	     7.03328e-18	
      6399.91996	     8.66979e-18	
      6401.82091	     6.33651e-18	
      6403.72186	     1.22899e-18	
      6405.62281	     5.96900e-18	
      6407.52376	     7.87362e-18	
      6409.42471	     5.55653e-18	
      6411.32566	     9.66911e-18	
      6413.22661	     2.64582e-18	
      6415.12756	     3.18440e-18	
      6417.02851	     5.11910e-18	
      6418.92946	     2.86865e-18	
      6420.83042	     2.71116e-18	
      6422.73137	     8.60544e-18	
      6424.63232	     8.30362e-18	
      6426.53327	     3.50347e-18	
      6428.43422	     7.59518e-18	
      6430.33517	     8.90381e-18	
      6432.23612	     4.76758e-18	
      6434.13707	     3.51358e-18	
      6436.03802	     7.65798e-18	
      6437.93897	     1.40815e-18	
      6439.83992	     3.23262e-18	
      6441.74087	     7.16499e-18	
      6443.64182	     3.57193e-18	
      6445.54277	     2.92722e-18	
      6447.44372	     6.08848e-18	
      6449.34467	     4.15232e-18	
      6451.24562	     1.11126e-17	
      6453.14657	     7.50983e-18	
      6455.04752	     8.40577e-18	
      6456.94847	     4.12723e-18	
      6458.84942	     8.32403e-18	
      6460.75038	     9.32528e-18	
      6462.65133	     9.87011e-18	
      6464.55228	     9.54770e-18	
      6466.45323	     7.39355e-18	
      6468.35418	     5.59092e-18	
      6470.25513	     6.41460e-18	
      6472.15608	     5.80655e-18	
      6474.05703	     5.93628e-18	
      6475.95798	     5.29998e-18	
      6477.85893	     7.60270e-18	
      6479.75988	     6.73227e-18	
      6481.66083	     2.62855e-18	
      6483.56178	     5.31980e-18	
      6485.46273	     7.61091e-18	
      6487.36368	     4.46677e-18	
      6489.26463	     5.36201e-18	
      6491.16558	     6.92768e-18	
      6493.06653	     1.07152e-17	
      6494.96748	     1.03839e-17	
      6496.86843	     1.28107e-17	
      6498.76938	     9.34287e-18	
      6500.67034	     1.08165e-17	
      6502.57129	     8.55716e-18	
      6504.47224	     6.96578e-18	
      6506.37319	     5.41040e-18	
      6508.27414	     5.88807e-18	
      6510.17509	     1.07550e-17	
      6512.07604	     1.03004e-17	
      6513.97699	     1.05901e-17	
      6515.87794	     1.30244e-17	
      6517.77889	     1.14730e-17	
      6519.67984	     6.84947e-18	
      6521.58079	     7.40783e-18	
      6523.48174	     1.12085e-17	
      6525.38269	     1.29554e-17	
      6527.28364	     8.67424e-18	
      6529.18459	     1.11959e-17	
      6531.08554	     1.51636e-17	
      6532.98649	     1.06805e-17	
      6534.88744	     1.37279e-17	
      6536.78839	     1.37190e-17	
      6538.68934	     1.69027e-17	
      6540.59030	     1.70810e-17	
      6542.49125	     1.04559e-17	
      6544.39220	     1.05995e-17	
      6546.29315	     9.67555e-18	
      6548.19410	     6.83338e-18	
      6550.09505	     1.49460e-17	
      6551.99600	     1.31416e-17	
      6553.89695	     7.96765e-18	
      6555.79790	     1.45724e-17	
      6557.69885	     1.51940e-17	
      6559.59980	     1.24978e-17	
      6561.50075	     1.72236e-17	
      6563.40170	     1.58477e-17	
      6565.30265	     9.74624e-18	
      6567.20360	     1.17807e-17	
      6569.10455	     1.31264e-17	
      6571.00550	     1.06200e-17	
      6572.90645	     1.14098e-17	
      6574.80740	     1.08859e-17	
      6576.70835	     1.09303e-17	
      6578.60930	     5.23732e-18	
      6580.51026	     8.00059e-18	
      6582.41121	     1.57922e-17	
      6584.31216	     9.04768e-18	
      6586.21311	     9.55174e-18	
      6588.11406	     1.15239e-17	
      6590.01501	     1.30517e-17	
      6591.91596	     1.14704e-17	
      6593.81691	     7.16846e-18	
      6595.71786	     1.04716e-17	
      6597.61881	     1.55460e-17	
      6599.51976	     1.15165e-17	
      6601.42071	     1.24447e-17	
      6603.32166	     1.50392e-17	
      6605.22261	     1.00436e-17	
      6607.12356	     5.50774e-18	
      6609.02451	     5.32581e-18	
      6610.92546	     6.78320e-18	
      6612.82641	     8.89343e-18	
      6614.72736	     1.25635e-17	
      6616.62831	     1.39442e-17	
      6618.52926	     1.47406e-17	
      6620.43022	     1.15605e-17	
      6622.33117	     1.05869e-17	
      6624.23212	     1.11020e-17	
      6626.13307	     9.74903e-18	
      6628.03402	     9.67740e-18	
      6629.93497	     7.85904e-18	
      6631.83592	     9.62454e-18	
      6633.73687	     6.80796e-18	
      6635.63782	     6.05153e-18	
      6637.53877	     7.26685e-18	
      6639.43972	     6.64172e-18	
      6641.34067	     8.67165e-18	
      6643.24162	     1.08958e-17	
      6645.14257	     9.23324e-18	
      6647.04352	     7.73969e-18	
      6648.94447	     7.95904e-18	
      6650.84542	     6.76209e-18	
      6652.74637	     6.86645e-18	
      6654.64732	     9.41530e-18	
      6656.54827	     5.45895e-18	
      6658.44922	     4.31510e-18	
      6660.35018	     8.92540e-18	
      6662.25113	     7.80508e-18	
      6664.15208	     8.72874e-18	
      6666.05303	     1.05354e-17	
      6667.95398	     5.92063e-18	
      6669.85493	     9.73703e-18	
      6671.75588	     6.74549e-18	
      6673.65683	     6.50749e-18	
      6675.55778	     1.07315e-17	
      6677.45873	     8.77807e-18	
      6679.35968	     4.32509e-18	
      6681.26063	     8.41935e-18	
      6683.16158	     1.01335e-17	
      6685.06253	     6.88395e-18	
      6686.96348	     7.65948e-18	
      6688.86443	     8.34723e-18	
      6690.76538	     6.86960e-18	
      6692.66633	     8.39569e-18	
      6694.56728	     8.07993e-18	
      6696.46823	     1.41899e-17	
      6698.36918	     5.67007e-18	
      6700.27014	     5.44427e-18	
      6702.17109	     8.69586e-18	
      6704.07204	     7.24894e-18	
      6705.97299	     9.35169e-18	
      6707.87394	     9.17036e-18	
      6709.77489	     5.69393e-18	
      6711.67584	     5.37352e-18	
      6713.57679	     4.96514e-18	
      6715.47774	     9.41532e-18	
      6717.37869	     4.48701e-18	
      6719.27964	     1.02876e-17	
      6721.18059	     1.09891e-17	
      6723.08154	     1.09818e-17	
      6724.98249	     7.78984e-18	
      6726.88344	     8.71752e-18	
      6728.78439	     7.21848e-18	
      6730.68534	     9.03129e-18	
      6732.58629	     7.26042e-18	
      6734.48724	     8.77441e-18	
      6736.38819	     7.27587e-18	
      6738.28914	     6.44612e-18	
      6740.19010	     5.68780e-18	
      6742.09105	     8.97202e-18	
      6743.99200	     9.66679e-18	
      6745.89295	     6.68195e-18	
      6747.79390	     6.96737e-18	
      6749.69485	     1.16871e-17	
      6751.59580	     7.83904e-18	
      6753.49675	     6.85231e-18	
      6755.39770	     7.56369e-18	
      6757.29865	     8.96909e-18	
      6759.19960	     1.26100e-17	
      6761.10055	     1.15596e-17	
      6763.00150	     9.51587e-18	
      6764.90245	     6.47927e-18	
      6766.80340	     1.37404e-17	
      6768.70435	     8.53795e-18	
      6770.60530	     9.32643e-18	
      6772.50625	     1.09834e-17	
      6774.40720	     8.79853e-18	
      6776.30815	     8.52998e-18	
      6778.20910	     5.99600e-18	
      6780.11006	     9.75854e-18	
      6782.01101	     1.38740e-17	
      6783.91196	     6.30554e-18	
      6785.81291	     2.69870e-18	
      6787.71386	     7.57609e-18	
      6789.61481	     9.06542e-18	
      6791.51576	     7.11784e-18	
      6793.41671	     7.59093e-18	
      6795.31766	     9.50066e-18	
      6797.21861	     4.24469e-18	
      6799.11956	     6.80782e-18	
      6801.02051	     7.96442e-18	
      6802.92146	     7.82636e-18	
      6804.82241	     6.55408e-18	
      6806.72336	     6.38554e-18	
      6808.62431	     8.04939e-18	
      6810.52526	     8.97066e-18	
      6812.42621	     8.51796e-18	
      6814.32716	     7.55579e-18	
      6816.22811	     6.44841e-18	
      6818.12906	     8.49589e-18	
      6820.03002	     9.83069e-18	
      6821.93097	     1.13254e-17	
      6823.83192	     7.81607e-18	
      6825.73287	     7.22976e-18	
      6827.63382	     7.55672e-18	
      6829.53477	     1.06769e-17	
      6831.43572	     1.36894e-17	
      6833.33667	     6.83366e-18	
      6835.23762	     1.06063e-17	
      6837.13857	     1.57816e-17	
      6839.03952	     1.19749e-17	
      6840.94047	     8.65133e-18	
      6842.84142	     1.06688e-17	
      6844.74237	     1.11792e-17	
      6846.64332	     5.79416e-18	
      6848.54427	     8.48990e-18	
      6850.44522	     9.36301e-18	
      6852.34617	     1.03610e-17	
      6854.24712	     1.08239e-17	
      6856.14807	     1.03646e-17	
      6858.04902	     1.13718e-17	
      6859.94997	     7.35965e-18	
      6861.85093	     7.76138e-18	
      6863.75188	     6.09433e-18	
      6865.65283	     7.82985e-18	
      6867.55378	     1.21668e-17	
      6869.45473	     1.05418e-17	
      6871.35568	     9.64111e-18	
      6873.25663	     9.90444e-18	
      6875.15758	     8.76164e-18	
      6877.05853	     9.62554e-18	
      6878.95948	     1.03469e-17	
      6880.86043	     1.15066e-17	
      6882.76138	     1.38322e-17	
      6884.66233	     1.20610e-17	
      6886.56328	     1.18642e-17	
      6888.46423	     1.05122e-17	
      6890.36518	     1.24670e-17	
      6892.26613	     1.16609e-17	
      6894.16708	     1.08177e-17	
      6896.06803	     1.00873e-17	
      6897.96898	     8.54231e-18	
      6899.86993	     9.18083e-18	
      6901.77089	     9.20746e-18	
      6903.67184	     1.21084e-17	
      6905.57279	     1.04881e-17	
      6907.47374	     1.05530e-17	
      6909.37469	     9.86632e-18	
      6911.27564	     9.70533e-18	
      6913.17659	     1.32638e-17	
      6915.07754	     9.73932e-18	
      6916.97849	     6.26728e-18	
      6918.87944	     7.78695e-18	
      6920.78039	     1.03996e-17	
      6922.68134	     9.51858e-18	
      6924.58229	     1.07993e-17	
      6926.48324	     1.19627e-17	
      6928.38419	     1.36778e-17	
      6930.28514	     1.21804e-17	
      6932.18609	     1.26523e-17	
      6934.08704	     1.68966e-17	
      6935.98799	     1.42803e-17	
      6937.88894	     1.42639e-17	
      6939.78989	     1.21721e-17	
      6941.69085	     1.34103e-17	
      6943.59180	     1.70670e-17	
      6945.49275	     1.58124e-17	
      6947.39370	     1.66349e-17	
      6949.29465	     1.82021e-17	
      6951.19560	     1.74158e-17	
      6953.09655	     1.64042e-17	
      6954.99750	     1.63715e-17	
      6956.89845	     1.49616e-17	
      6958.79940	     1.60799e-17	
      6960.70035	     1.62057e-17	
      6962.60130	     1.38044e-17	
      6964.50225	     1.51178e-17	
      6966.40320	     1.38756e-17	
      6968.30415	     1.79529e-17	
      6970.20510	     1.78137e-17	
      6972.10605	     1.28808e-17	
      6974.00700	     1.46110e-17	
      6975.90795	     1.83653e-17	
      6977.80890	     1.93156e-17	
      6979.70985	     1.57169e-17	
      6981.61081	     1.43072e-17	
      6983.51176	     1.52883e-17	
      6985.41271	     1.51237e-17	
      6987.31366	     1.81545e-17	
      6989.21461	     1.98589e-17	
      6991.11556	     2.01290e-17	
      6993.01651	     1.89120e-17	
      6994.91746	     1.67689e-17	
      6996.81841	     1.61801e-17	
      6998.71936	     1.70944e-17	
      7000.62031	     2.02436e-17	
      7002.52126	     2.02560e-17	
      7004.42221	     1.56278e-17	
      7006.32316	     1.67157e-17	
      7008.22411	     1.97238e-17	
      7010.12506	     1.85640e-17	
      7012.02601	     1.99080e-17	
      7013.92696	     1.87917e-17	
      7015.82791	     2.08669e-17	
      7017.72886	     1.98411e-17	
      7019.62981	     2.46938e-17	
      7021.53077	     2.38768e-17	
      7023.43172	     1.71111e-17	
      7025.33267	     2.06044e-17	
      7027.23362	     2.53755e-17	
      7029.13457	     2.23860e-17	
      7031.03552	     2.14280e-17	
      7032.93647	     2.37469e-17	
      7034.83742	     2.63503e-17	
      7036.73837	     2.52936e-17	
      7038.63932	     2.31533e-17	
      7040.54027	     2.66507e-17	
      7042.44122	     2.64452e-17	
      7044.34217	     2.72298e-17	
      7046.24312	     2.88898e-17	
      7048.14407	     2.85307e-17	
      7050.04502	     2.81119e-17	
      7051.94597	     2.84219e-17	
      7053.84692	     2.80846e-17	
      7055.74787	     2.26020e-17	
      7057.64882	     1.61063e-17	
      7059.54977	     1.25777e-17	
      7061.45073	     1.26265e-17	
      7063.35168	     1.30629e-17	
      7065.25263	     1.40082e-17	
      7067.15358	     1.45301e-17	
      7069.05453	     1.15003e-17	
      7070.95548	     1.15371e-17	
      7072.85643	     1.12020e-17	
      7074.75738	     1.07117e-17	
      7076.65833	     1.12482e-17	
      7078.55928	     1.20983e-17	
      7080.46023	     1.25394e-17	
      7082.36118	     1.42302e-17	
      7084.26213	     1.14698e-17	
      7086.16308	     1.04120e-17	
      7088.06403	     1.13561e-17	
      7089.96498	     1.28511e-17	
      7091.86593	     1.21800e-17	
      7093.76688	     1.24974e-17	
      7095.66783	     7.97801e-18	
      7097.56878	     8.35630e-18	
      7099.46973	     1.15949e-17	
      7101.37069	     8.56966e-18	
      7103.27164	     1.18025e-17	
      7105.17259	     1.36489e-17	
      7107.07354	     9.02968e-18	
      7108.97449	     1.04299e-17	
      7110.87544	     1.39993e-17	
      7112.77639	     1.23591e-17	
      7114.67734	     1.26034e-17	
      7116.57829	     1.26626e-17	
      7118.47924	     1.05420e-17	
      7120.38019	     9.28843e-18	
      7122.28114	     1.14555e-17	
      7124.18209	     1.42915e-17	
      7126.08304	     1.08661e-17	
      7127.98399	     1.00969e-17	
      7129.88494	     9.12387e-18	
      7131.78589	     8.73906e-18	
      7133.68684	     7.03653e-18	
      7135.58779	     6.82275e-18	
      7137.48874	     8.50497e-18	
      7139.38969	     6.83862e-18	
      7141.29065	     6.59179e-18	
      7143.19160	     1.37464e-17	
      7145.09255	     1.05794e-17	
      7146.99350	     8.90475e-18	
      7148.89445	     9.61814e-18	
      7150.79540	     9.56662e-18	
      7152.69635	     9.71362e-18	
      7154.59730	     1.22213e-17	
      7156.49825	     1.16406e-17	
      7158.39920	     1.06849e-17	
      7160.30015	     1.09835e-17	
      7162.20110	     9.01009e-18	
      7164.10205	     1.11200e-17	
      7166.00300	     1.35864e-17	
      7167.90395	     1.18380e-17	
      7169.80490	     9.87997e-18	
      7171.70585	     1.30971e-17	
      7173.60680	     1.23366e-17	
      7175.50775	     1.22102e-17	
      7177.40870	     1.10822e-17	
      7179.30965	     1.18753e-17	
      7181.21061	     1.25348e-17	
      7183.11156	     1.26748e-17	
      7185.01251	     1.34470e-17	
      7186.91346	     1.39773e-17	
      7188.81441	     1.23163e-17	
      7190.71536	     1.40991e-17	
      7192.61631	     1.48453e-17	
      7194.51726	     1.47255e-17	
      7196.41821	     1.52259e-17	
      7198.31916	     1.39742e-17	
      7200.22011	     1.20318e-17	
      7202.12106	     1.09520e-17	
      7204.02201	     1.50431e-17	
      7205.92296	     1.28213e-17	
      7207.82391	     1.14113e-17	
      7209.72486	     1.31247e-17	
      7211.62581	     1.17844e-17	
      7213.52676	     1.41597e-17	
      7215.42771	     1.33411e-17	
      7217.32866	     1.61114e-17	
      7219.22961	     1.65652e-17	
      7221.13057	     1.51709e-17	
      7223.03152	     1.56822e-17	
      7224.93247	     1.44386e-17	
      7226.83342	     1.78504e-17	
      7228.73437	     1.68640e-17	
      7230.63532	     1.48409e-17	
      7232.53627	     1.47789e-17	
      7234.43722	     1.52055e-17	
      7236.33817	     1.75796e-17	
      7238.23912	     2.09342e-17	
      7240.14007	     1.76981e-17	
      7242.04102	     1.41024e-17	
      7243.94197	     1.73109e-17	
      7245.84292	     1.68252e-17	
      7247.74387	     1.80448e-17	
      7249.64482	     2.22513e-17	
      7251.54577	     2.42308e-17	
      7253.44672	     2.24192e-17	
      7255.34767	     2.06138e-17	
      7257.24862	     2.17302e-17	
      7259.14957	     2.23406e-17	
      7261.05053	     2.25691e-17	
      7262.95148	     2.16777e-17	
      7264.85243	     2.33421e-17	
      7266.75338	     2.49756e-17	
      7268.65433	     2.48689e-17	
      7270.55528	     2.33772e-17	
      7272.45623	     2.34192e-17	
      7274.35718	     2.60396e-17	
      7276.25813	     2.30373e-17	
      7278.15908	     2.36354e-17	
      7280.06003	     2.21547e-17	
      7281.96098	     2.85425e-17	
      7283.86193	     2.62164e-17	
      7285.76288	     2.41988e-17	
      7287.66383	     2.71409e-17	
      7289.56478	     2.73336e-17	
      7291.46573	     2.80174e-17	
      7293.36668	     2.73211e-17	
      7295.26763	     2.57575e-17	
      7297.16858	     2.69386e-17	
      7299.06953	     2.90558e-17	
      7300.97049	     3.31095e-17	
      7302.87144	     3.59826e-17	
      7304.77239	     3.44612e-17	
      7306.67334	     3.32131e-17	
      7308.57429	     3.39717e-17	
      7310.47524	     3.42933e-17	
      7312.37619	     3.59141e-17	
      7314.27714	     3.48238e-17	
      7316.17809	     3.33241e-17	
      7318.07904	     3.97323e-17	
      7319.97999	     4.50141e-17	
      7321.88094	     4.46377e-17	
      7323.78189	     4.26536e-17	
      7325.68284	     4.01593e-17	
      7327.58379	     4.00158e-17	
      7329.48474	     3.70913e-17	
      7331.38569	     4.07392e-17	
      7333.28664	     4.20097e-17	
      7335.18759	     4.06420e-17	
      7337.08854	     4.21804e-17	
      7338.98949	     4.19845e-17	
      7340.89045	     4.50644e-17	
      7342.79140	     5.00483e-17	
      7344.69235	     4.53450e-17	
      7346.59330	     4.71441e-17	
      7348.49425	     4.23381e-17	
      7350.39520	     4.33486e-17	
      7352.29615	     4.77146e-17	
      7354.19710	     4.41146e-17	
      7356.09805	     4.15886e-17	
      7357.99900	     4.13922e-17	
      7359.89995	     4.26002e-17	
      7361.80090	     4.58361e-17	
      7363.70185	     4.86686e-17	
      7365.60280	     5.03524e-17	
      7367.50375	     5.09953e-17	
      7369.40470	     5.22811e-17	
      7371.30565	     5.28197e-17	
      7373.20660	     5.08483e-17	
      7375.10755	     4.94095e-17	
      7377.00850	     5.18178e-17	
      7378.90945	     4.70399e-17	
      7380.81041	     4.53465e-17	
      7382.71136	     4.80123e-17	
      7384.61231	     4.72451e-17	
      7386.51326	     4.80234e-17	
      7388.41421	     4.83140e-17	
      7390.31516	     4.91771e-17	
      7392.21611	     5.00050e-17	
      7394.11706	     4.93668e-17	
      7396.01801	     4.86343e-17	
      7397.91896	     4.53680e-17	
      7399.81991	     4.81472e-17	
      7401.72086	     4.67064e-17	
      7403.62181	     4.43060e-17	
      7405.52276	     4.61084e-17	
      7407.42371	     4.48689e-17	
      7409.32466	     4.59876e-17	
      7411.22561	     4.72205e-17	
      7413.12656	     4.40020e-17	
      7415.02751	     4.80649e-17	
      7416.92846	     4.93554e-17	
      7418.82941	     4.48301e-17	
      7420.73037	     4.31587e-17	
      7422.63132	     4.33567e-17	
      7424.53227	     4.30302e-17	
      7426.43322	     4.58939e-17	
      7428.33417	     4.79183e-17	
      7430.23512	     4.89291e-17	
      7432.13607	     5.18836e-17	
      7434.03702	     4.69924e-17	
      7435.93797	     4.73792e-17	
      7437.83892	     4.80389e-17	
      7439.73987	     4.57229e-17	
      7441.64082	     4.58632e-17	
      7443.54177	     4.50308e-17	
      7445.44272	     4.46959e-17	
      7447.34367	     4.49112e-17	
      7449.24462	     4.28899e-17	
      7451.14557	     4.42289e-17	
      7453.04652	     4.57164e-17	
      7454.94747	     4.47346e-17	
      7456.84842	     4.34307e-17	
      7458.74937	     4.48270e-17	
      7460.65033	     4.50026e-17	
      7462.55128	     4.54204e-17	
      7464.45223	     4.88256e-17	
      7466.35318	     4.90586e-17	
      7468.25413	     4.81411e-17	
      7470.15508	     4.91589e-17	
      7472.05603	     4.49472e-17	
      7473.95698	     4.38688e-17	
      7475.85793	     4.68339e-17	
      7477.75888	     4.77436e-17	
      7479.65983	     4.91839e-17	
      7481.56078	     5.10720e-17	
      7483.46173	     4.94355e-17	
      7485.36268	     4.92859e-17	
      7487.26363	     5.23579e-17	
      7489.16458	     5.21740e-17	
      7491.06553	     4.89671e-17	
      7492.96648	     5.05902e-17	
      7494.86743	     5.06618e-17	
      7496.76838	     5.17339e-17	
      7498.66933	     5.14470e-17	
      7500.57029	     5.17991e-17	
      7502.47124	     5.40957e-17	
      7504.37219	     5.60813e-17	
      7506.27314	     5.26120e-17	
      7508.17409	     5.33427e-17	
      7510.07504	     5.41656e-17	
      7511.97599	     5.45748e-17	
      7513.87694	     5.85859e-17	
      7515.77789	     5.59927e-17	
      7517.67884	     5.46250e-17	
      7519.57979	     5.28096e-17	
      7521.48074	     5.17671e-17	
      7523.38169	     5.30164e-17	
      7525.28264	     5.35715e-17	
      7527.18359	     5.03877e-17	
      7529.08454	     5.29718e-17	
      7530.98549	     5.83775e-17	
      7532.88644	     5.75066e-17	
      7534.78739	     5.52221e-17	
      7536.68834	     5.87024e-17	
      7538.58929	     6.00594e-17	
      7540.49025	     5.99863e-17	
      7542.39120	     6.13211e-17	
      7544.29215	     6.32429e-17	
      7546.19310	     6.16305e-17	
      7548.09405	     6.18717e-17	
      7549.99500	     6.16789e-17	
      7551.89595	     5.98008e-17	
      7553.79690	     6.27759e-17	
      7555.69785	     6.43313e-17	
      7557.59880	     6.65969e-17	
      7559.49975	     6.18559e-17	
      7561.40070	     6.04660e-17	
      7563.30165	     6.12421e-17	
      7565.20260	     6.28155e-17	
      7567.10355	     5.93501e-17	
      7569.00450	     5.98916e-17	
      7570.90545	     6.08862e-17	
      7572.80640	     6.18204e-17	
      7574.70735	     6.49989e-17	
      7576.60830	     6.39893e-17	
      7578.50925	     6.49577e-17	
      7580.41021	     6.58295e-17	
      7582.31116	     6.59205e-17	
      7584.21211	     6.95332e-17	
      7586.11306	     6.26108e-17	
      7588.01401	     5.60553e-17	
      7589.91496	     4.48228e-17	
      7591.81591	     3.47726e-17	
      7593.71686	     2.67880e-17	
      7595.61781	     2.40668e-17	
      7597.51876	     1.88347e-17	
      7599.41971	     1.63834e-17	
      7601.32066	     1.35347e-17	
      7603.22161	     1.38649e-17	
      7605.12256	     1.37451e-17	
      7607.02351	     1.32482e-17	
      7608.92446	     1.41693e-17	
      7610.82541	     1.85369e-17	
      7612.72636	     2.17366e-17	
      7614.62731	     2.52451e-17	
      7616.52826	     3.36449e-17	
      7618.42921	     3.59190e-17	
      7620.33017	     3.65345e-17	
      7622.23112	     3.12883e-17	
      7624.13207	     2.84528e-17	
      7626.03302	     2.73035e-17	
      7627.93397	     2.32224e-17	
      7629.83492	     1.87695e-17	
      7631.73587	     1.48599e-17	
      7633.63682	     1.47676e-17	
      7635.53777	     1.80070e-17	
      7637.43872	     1.75198e-17	
      7639.33967	     1.91711e-17	
      7641.24062	     1.94057e-17	
      7643.14157	     1.96685e-17	
      7645.04252	     1.98631e-17	
      7646.94347	     2.15718e-17	
      7648.84442	     2.05112e-17	
      7650.74537	     1.99402e-17	
      7652.64632	     1.54742e-17	
      7654.54727	     1.92982e-17	
      7656.44822	     1.83533e-17	
      7658.34917	     1.39326e-17	
      7660.25013	     1.65075e-17	
      7662.15108	     1.55574e-17	
      7664.05203	     1.13222e-17	
      7665.95298	     1.00173e-17	
      7667.85393	     9.51251e-18	
      7669.75488	     1.10665e-17	
      7671.65583	     1.17996e-17	
      7673.55678	     1.51820e-17	
      7675.45773	     1.38736e-17	
      7677.35868	     1.58838e-17	
      7679.25963	     1.60963e-17	
      7681.16058	     1.85766e-17	
      7683.06153	     1.99993e-17	
      7684.96248	     1.96285e-17	
      7686.86343	     1.85382e-17	
      7688.76438	     2.03855e-17	
      7690.66533	     2.05042e-17	
      7692.56628	     1.91000e-17	
      7694.46723	     1.44354e-17	
      7696.36818	     1.62388e-17	
      7698.26913	     1.48121e-17	
      7700.17009	     1.38286e-17	
      7702.07104	     1.27042e-17	
      7703.97199	     1.42571e-17	
      7705.87294	     1.38801e-17	
      7707.77389	     1.54973e-17	
      7709.67484	     1.80994e-17	
      7711.57579	     1.59728e-17	
      7713.47674	     1.44421e-17	
      7715.37769	     1.90158e-17	
      7717.27864	     2.13217e-17	
      7719.17959	     1.95011e-17	
      7721.08054	     2.17505e-17	
      7722.98149	     2.42881e-17	
      7724.88244	     2.62415e-17	
      7726.78339	     2.66475e-17	
      7728.68434	     2.93414e-17	
      7730.58529	     3.15671e-17	
      7732.48624	     2.91374e-17	
      7734.38719	     3.21992e-17	
      7736.28814	     3.59609e-17	
      7738.18909	     3.73140e-17	
      7740.09005	     3.75059e-17	
      7741.99100	     3.76207e-17	
      7743.89195	     3.37602e-17	
      7745.79290	     3.17321e-17	
      7747.69385	     2.98206e-17	
      7749.59480	     2.67302e-17	
      7751.49575	     2.30759e-17	
      7753.39670	     1.90171e-17	
      7755.29765	     2.01071e-17	
      7757.19860	     2.06469e-17	
      7759.09955	     2.70386e-17	
      7761.00050	     2.60160e-17	
      7762.90145	     2.53575e-17	
      7764.80240	     2.85434e-17	
      7766.70335	     2.99198e-17	
      7768.60430	     3.19741e-17	
      7770.50525	     3.28678e-17	
      7772.40620	     3.31770e-17	
      7774.30715	     3.32033e-17	
      7776.20810	     3.14831e-17	
      7778.10905	     3.36992e-17	
      7780.01001	     3.24121e-17	
      7781.91096	     3.36801e-17	
      7783.81191	     3.46734e-17	
      7785.71286	     3.01689e-17	
      7787.61381	     3.01375e-17	
      7789.51476	     3.19084e-17	
      7791.41571	     3.40971e-17	
      7793.31666	     3.18700e-17	
      7795.21761	     2.87792e-17	
      7797.11856	     2.85433e-17	
      7799.01951	     2.77592e-17	
      7800.92046	     3.23831e-17	
      7802.82141	     3.23021e-17	
      7804.72236	     3.51485e-17	
      7806.62331	     4.06328e-17	
      7808.52426	     4.50194e-17	
      7810.42521	     4.43488e-17	
      7812.32616	     4.16750e-17	
      7814.22711	     4.47175e-17	
      7816.12806	     4.24513e-17	
      7818.02901	     4.21383e-17	
      7819.92996	     4.30142e-17	
      7821.83092	     3.85653e-17	
      7823.73187	     3.73432e-17	
      7825.63282	     3.58885e-17	
      7827.53377	     3.53156e-17	
      7829.43472	     3.50036e-17	
      7831.33567	     3.36165e-17	
      7833.23662	     3.63363e-17	
      7835.13757	     3.78323e-17	
      7837.03852	     4.08491e-17	
      7838.93947	     3.80885e-17	
      7840.84042	     3.88299e-17	
      7842.74137	     4.13619e-17	
      7844.64232	     4.05415e-17	
      7846.54327	     4.33683e-17	
      7848.44422	     4.49229e-17	
      7850.34517	     4.23951e-17	
      7852.24612	     3.89765e-17	
      7854.14707	     4.21477e-17	
      7856.04802	     4.45071e-17	
      7857.94897	     4.37954e-17	
      7859.84992	     4.30278e-17	
      7861.75088	     4.22350e-17	
      7863.65183	     4.35667e-17	
      7865.55278	     4.05682e-17	
      7867.45373	     4.12197e-17	
      7869.35468	     3.67296e-17	
      7871.25563	     3.75700e-17	
      7873.15658	     3.45486e-17	
      7875.05753	     3.85905e-17	
      7876.95848	     4.56799e-17	
      7878.85943	     4.33046e-17	
      7880.76038	     4.74047e-17	
      7882.66133	     4.80603e-17	
      7884.56228	     4.80417e-17	
      7886.46323	     4.78366e-17	
      7888.36418	     4.86514e-17	
      7890.26513	     4.56952e-17	
      7892.16608	     5.08121e-17	
      7894.06703	     5.01976e-17	
      7895.96798	     4.83657e-17	
      7897.86893	     4.75404e-17	
      7899.76988	     4.43223e-17	
      7901.67084	     4.14370e-17	
      7903.57179	     4.07889e-17	
      7905.47274	     4.49555e-17	
      7907.37369	     4.49450e-17	
      7909.27464	     4.32550e-17	
      7911.17559	     4.04774e-17	
      7913.07654	     4.16487e-17	
      7914.97749	     4.22868e-17	
      7916.87844	     4.21757e-17	
      7918.77939	     4.10617e-17	
      7920.68034	     3.60177e-17	
      7922.58129	     3.46298e-17	
      7924.48224	     3.67517e-17	
      7926.38319	     4.06885e-17	
      7928.28414	     4.45992e-17	
      7930.18509	     4.53541e-17	
      7932.08604	     5.24597e-17	
      7933.98699	     5.54381e-17	
      7935.88794	     5.26352e-17	
      7937.78889	     4.96190e-17	
      7939.68984	     4.53959e-17	
      7941.59080	     4.26563e-17	
      7943.49175	     4.24220e-17	
      7945.39270	     4.13240e-17	
      7947.29365	     4.04720e-17	
      7949.19460	     3.76827e-17	
      7951.09555	     3.90371e-17	
      7952.99650	     4.32511e-17	
      7954.89745	     4.58694e-17	
      7956.79840	     4.73600e-17	
      7958.69935	     5.30240e-17	
      7960.60030	     4.93103e-17	
      7962.50125	     4.58839e-17	
      7964.40220	     5.36547e-17	
      7966.30315	     4.99071e-17	
      7968.20410	     4.82909e-17	
      7970.10505	     5.25932e-17	
      7972.00600	     5.16867e-17	
      7973.90695	     5.52134e-17	
      7975.80790	     5.17263e-17	
      7977.70885	     5.17875e-17	
      7979.60980	     4.63150e-17	
      7981.51076	     4.96748e-17	
      7983.41171	     5.08135e-17	
      7985.31266	     4.96759e-17	
      7987.21361	     4.58752e-17	
      7989.11456	     4.48115e-17	
      7991.01551	     4.70093e-17	
      7992.91646	     4.91609e-17	
      7994.81741	     4.60909e-17	
      7996.71836	     4.37742e-17	
      7998.61931	     4.61125e-17	
      8000.52026	     4.76858e-17	
      8002.42121	     5.18034e-17	
      8004.32216	     5.19408e-17	
      8006.22311	     5.42760e-17	
      8008.12406	     5.43617e-17	
      8010.02501	     5.55061e-17	
      8011.92596	     5.70065e-17	
      8013.82691	     5.77248e-17	
      8015.72786	     5.85330e-17	
      8017.62881	     5.91900e-17	
      8019.52976	     6.22505e-17	
      8021.43072	     5.92514e-17	
      8023.33167	     6.08699e-17	
      8025.23262	     6.65731e-17	
      8027.13357	     6.37024e-17	
      8029.03452	     6.54506e-17	
      8030.93547	     6.87147e-17	
      8032.83642	     6.64209e-17	
      8034.73737	     6.43009e-17	
      8036.63832	     6.62651e-17	
      8038.53927	     6.70346e-17	
      8040.44022	     6.63859e-17	
      8042.34117	     6.75887e-17	
      8044.24212	     7.02308e-17	
      8046.14307	     7.28862e-17	
      8048.04402	     7.33330e-17	
      8049.94497	     7.65526e-17	
      8051.84592	     8.14016e-17	
      8053.74687	     8.09536e-17	
      8055.64782	     8.16455e-17	
      8057.54877	     8.53729e-17	
      8059.44972	     8.26351e-17	
      8061.35068	     8.25296e-17	
      8063.25163	     8.47747e-17	
      8065.15258	     8.79462e-17	
      8067.05353	     8.92481e-17	
      8068.95448	     8.95645e-17	
      8070.85543	     8.91319e-17	
      8072.75638	     8.93611e-17	
      8074.65733	     9.37138e-17	
      8076.55828	     9.10623e-17	
      8078.45923	     9.44974e-17	
      8080.36018	     9.34505e-17	
      8082.26113	     9.67394e-17	
      8084.16208	     9.54128e-17	
      8086.06303	     9.58354e-17	
      8087.96398	     9.70270e-17	
      8089.86493	     1.00107e-16	
      8091.76588	     1.01667e-16	
      8093.66683	     1.03774e-16	
      8095.56778	     1.00590e-16	
      8097.46873	     9.94018e-17	
      8099.36968	     9.79341e-17	
      8101.27064	     9.85722e-17	
      8103.17159	     1.01233e-16	
      8105.07254	     1.04566e-16	
      8106.97349	     1.03917e-16	
      8108.87444	     1.04555e-16	
      8110.77539	     1.05783e-16	
      8112.67634	     1.12184e-16	
      8114.57729	     1.10564e-16	
      8116.47824	     1.10347e-16	
      8118.37919	     1.12212e-16	
      8120.28014	     1.11112e-16	
      8122.18109	     1.19046e-16	
      8124.08204	     1.21092e-16	
      8125.98299	     1.19536e-16	
      8127.88394	     1.33986e-16	
      8129.78489	     1.43999e-16	
      8131.68584	     1.18776e-16	
      8133.58679	     1.20976e-16	
      8135.48774	     1.26209e-16	
      8137.38869	     1.31919e-16	
      8139.28964	     1.26664e-16	
      8141.19060	     1.23744e-16	
      8143.09155	     1.24882e-16	
      8144.99250	     1.20625e-16	
      8146.89345	     1.19245e-16	
      8148.79440	     1.22364e-16	
      8150.69535	     1.21208e-16	
      8152.59630	     1.21038e-16	
      8154.49725	     1.22344e-16	
      8156.39820	     1.21027e-16	
      8158.29915	     1.22668e-16	
      8160.20010	     1.19855e-16	
      8162.10105	     1.23313e-16	
      8164.00200	     1.27460e-16	
      8165.90295	     1.25583e-16	
      8167.80390	     1.26997e-16	
      8169.70485	     1.27934e-16	
      8171.60580	     1.28659e-16	
      8173.50675	     1.28118e-16	
      8175.40770	     1.26017e-16	
      8177.30865	     1.19074e-16	
      8179.20960	     1.08084e-16	
      8181.11056	     9.50818e-17	
      8183.01151	     8.73037e-17	
      8184.91246	     8.84437e-17	
      8186.81341	     9.45782e-17	
      8188.71436	     1.00289e-16	
      8190.61531	     1.02307e-16	
      8192.51626	     9.16004e-17	
      8194.41721	     8.15567e-17	
      8196.31816	     7.57520e-17	
      8198.21911	     8.15506e-17	
      8200.12006	     9.20616e-17	
      8202.02101	     1.00773e-16	
      8203.92196	     1.09283e-16	
      8205.82291	     1.06993e-16	
      8207.72386	     1.06321e-16	
      8209.62481	     1.09367e-16	
      8211.52576	     1.07640e-16	
      8213.42671	     1.08970e-16	
      8215.32766	     1.12101e-16	
      8217.22861	     1.12496e-16	
      8219.12956	     1.14036e-16	
      8221.03052	     1.16848e-16	
      8222.93147	     1.20128e-16	
      8224.83242	     1.13137e-16	
      8226.73337	     1.15120e-16	
      8228.63432	     1.20854e-16	
      8230.53527	     1.20948e-16	
      8232.43622	     1.22156e-16	
      8234.33717	     1.24835e-16	
      8236.23812	     1.25116e-16	
      8238.13907	     1.26194e-16	
      8240.04002	     1.26973e-16	
      8241.94097	     1.28582e-16	
      8243.84192	     1.30012e-16	
      8245.74287	     1.32149e-16	
      8247.64382	     1.30268e-16	
      8249.54477	     1.28639e-16	
      8251.44572	     1.22627e-16	
      8253.34667	     1.19908e-16	
      8255.24762	     1.19797e-16	
      8257.14857	     1.19552e-16	
      8259.04952	     1.23953e-16	
      8260.95048	     1.27390e-16	
      8262.85143	     1.30773e-16	
      8264.75238	     1.32013e-16	
      8266.65333	     1.29741e-16	
      8268.55428	     1.28688e-16	
      8270.45523	     1.25753e-16	
      8272.35618	     1.24656e-16	
      8274.25713	     1.25143e-16	
      8276.15808	     1.24542e-16	
      8278.05903	     1.22805e-16	
      8279.95998	     1.19627e-16	
      8281.86093	     1.17846e-16	
      8283.76188	     1.14229e-16	
      8285.66283	     1.07223e-16	
      8287.56378	     1.02265e-16	
      8289.46473	     9.79686e-17	
      8291.36568	     9.80530e-17	
      8293.26663	     1.03538e-16	
      8295.16758	     1.05973e-16	
      8297.06853	     1.04814e-16	
      8298.96948	     9.83457e-17	
      8300.87044	     9.77761e-17	
      8302.77139	     1.01297e-16	
      8304.67234	     1.02827e-16	
      8306.57329	     1.03704e-16	
      8308.47424	     1.06602e-16	
      8310.37519	     1.09655e-16	
      8312.27614	     1.09635e-16	
      8314.17709	     1.07913e-16	
      8316.07804	     1.12798e-16	
      8317.97899	     1.15665e-16	
      8319.87994	     1.16829e-16	
      8321.78089	     1.18958e-16	
      8323.68184	     1.15658e-16	
      8325.58279	     1.09940e-16	
      8327.48374	     1.11215e-16	
      8329.38469	     1.14047e-16	
      8331.28564	     1.11503e-16	
      8333.18659	     1.09372e-16	
      8335.08754	     1.09931e-16	
      8336.98849	     1.10293e-16	
      8338.88944	     1.11485e-16	
      8340.79040	     1.12582e-16	
      8342.69135	     1.08755e-16	
      8344.59230	     1.03898e-16	
      8346.49325	     1.08997e-16	
      8348.39420	     1.13337e-16	
      8350.29515	     1.05660e-16	
      8352.19610	     1.04385e-16	
      8354.09705	     1.07947e-16	
      8355.99800	     1.10359e-16	
      8357.89895	     1.08267e-16	
      8359.79990	     1.12723e-16	
      8361.70085	     1.11213e-16	
      8363.60180	     1.14835e-16	
      8365.50275	     1.16075e-16	
      8367.40370	     1.21824e-16	
      8369.30465	     1.23031e-16	
      8371.20560	     1.20639e-16	
      8373.10655	     1.14287e-16	
      8375.00750	     1.12555e-16	
      8376.90845	     1.15011e-16	
      8378.80940	     1.14989e-16	
      8380.71036	     1.15727e-16	
      8382.61131	     1.10215e-16	
      8384.51226	     1.08022e-16	
      8386.41321	     1.00277e-16	
      8388.31416	     1.01695e-16	
      8390.21511	     1.02665e-16	
      8392.11606	     1.03523e-16	
      8394.01701	     1.04226e-16	
      8395.91796	     1.05285e-16	
      8397.81891	     1.09956e-16	
      8399.71986	     1.12926e-16	
      8401.62081	     1.08600e-16	
      8403.52176	     1.10057e-16	
      8405.42271	     1.15957e-16	
      8407.32366	     1.16617e-16	
      8409.22461	     1.14275e-16	
      8411.12556	     1.11294e-16	
      8413.02651	     1.17454e-16	
      8414.92746	     1.19925e-16	
      8416.82841	     1.21768e-16	
      8418.72936	     1.23843e-16	
      8420.63032	     1.17773e-16	
      8422.53127	     1.14306e-16	
      8424.43222	     1.17006e-16	
      8426.33317	     1.17971e-16	
      8428.23412	     1.11322e-16	
      8430.13507	     1.09290e-16	
      8432.03602	     9.54331e-17	
      8433.93697	     8.28056e-17	
      8435.83792	     8.08914e-17	
      8437.73887	     8.20403e-17	
      8439.63982	     8.26770e-17	
      8441.54077	     8.07713e-17	
      8443.44172	     7.73460e-17	
      8445.34267	     7.46201e-17	
      8447.24362	     7.73867e-17	
      8449.14457	     7.55529e-17	
      8451.04552	     6.87558e-17	
      8452.94647	     6.50164e-17	
      8454.84742	     6.33170e-17	
      8456.74837	     5.86850e-17	
      8458.64932	     5.89922e-17	
      8460.55028	     5.82521e-17	
      8462.45123	     5.01081e-17	
      8464.35218	     5.16973e-17	
      8466.25313	     6.21772e-17	
      8468.15408	     6.17170e-17	
      8470.05503	     5.88967e-17	
      8471.95598	     6.13317e-17	
      8473.85693	     6.12438e-17	
      8475.75788	     6.43020e-17	
      8477.65883	     6.28249e-17	
      8479.55978	     6.17867e-17	
      8481.46073	     6.20194e-17	
      8483.36168	     6.49279e-17	
      8485.26263	     7.06618e-17	
      8487.16358	     7.27232e-17	
      8489.06453	     7.85880e-17	
      8490.96548	     8.20501e-17	
      8492.86643	     8.02853e-17	
      8494.76738	     7.80186e-17	
      8496.66833	     7.10142e-17	
      8498.56928	     7.14876e-17	
      8500.47024	     7.21017e-17	
      8502.37119	     7.25977e-17	
      8504.27214	     6.99169e-17	
      8506.17309	     6.10106e-17	
      8508.07404	     6.58260e-17	
      8509.97499	     7.30108e-17	
      8511.87594	     6.98684e-17	
      8513.77689	     6.81996e-17	
      8515.67784	     6.69735e-17	
      8517.57879	     6.45946e-17	
      8519.47974	     6.23667e-17	
      8521.38069	     6.08174e-17	
      8523.28164	     6.33699e-17	
      8525.18259	     7.03265e-17	
      8527.08354	     7.15069e-17	
      8528.98449	     7.07299e-17	
      8530.88544	     7.46581e-17	
      8532.78639	     7.59815e-17	
      8534.68734	     7.51698e-17	
      8536.58829	     7.85596e-17	
      8538.48924	     7.78764e-17	
      8540.39020	     7.58844e-17	
      8542.29115	     7.90846e-17	
      8544.19210	     8.31345e-17	
      8546.09305	     8.94715e-17	
      8547.99400	     8.70156e-17	
      8549.89495	     9.04019e-17	
      8551.79590	     9.19715e-17	
      8553.69685	     9.17754e-17	
      8555.59780	     9.13753e-17	
      8557.49875	     8.97347e-17	
      8559.39970	     8.54621e-17	
      8561.30065	     8.58525e-17	
      8563.20160	     8.65494e-17	
      8565.10255	     8.99543e-17	
      8567.00350	     9.02024e-17	
      8568.90445	     9.09456e-17	
      8570.80540	     8.90094e-17	
      8572.70635	     8.54340e-17	
      8574.60730	     8.84808e-17	
      8576.50825	     8.46565e-17	
      8578.40920	     9.02698e-17	
      8580.31016	     9.44574e-17	
      8582.21111	     9.51115e-17	
      8584.11206	     9.67461e-17	
      8586.01301	     9.68237e-17	
      8587.91396	     9.22970e-17	
      8589.81491	     8.72801e-17	
      8591.71586	     9.24856e-17	
      8593.61681	     9.43895e-17	
      8595.51776	     9.75152e-17	
      8597.41871	     9.62283e-17	
      8599.31966	     9.86407e-17	
      8601.22061	     1.02047e-16	
      8603.12156	     9.79569e-17	
      8605.02251	     9.96934e-17	
      8606.92346	     1.03772e-16	
      8608.82441	     1.03405e-16	
      8610.72536	     9.45446e-17	
      8612.62631	     9.70192e-17	
      8614.52726	     9.19479e-17	
      8616.42821	     8.42727e-17	
      8618.32916	     8.90474e-17	
      8620.23012	     8.66237e-17	
      8622.13107	     8.16294e-17	
      8624.03202	     8.25261e-17	
      8625.93297	     8.64893e-17	
      8627.83392	     9.00659e-17	
      8629.73487	     8.79012e-17	
      8631.63582	     9.12745e-17	
      8633.53677	     9.97792e-17	
      8635.43772	     9.80042e-17	
      8637.33867	     9.67255e-17	
      8639.23962	     9.10705e-17	
      8641.14057	     9.03882e-17	
      8643.04152	     8.87409e-17	
      8644.94247	     8.84896e-17	
      8646.84342	     9.17790e-17	
      8648.74437	     9.39458e-17	
      8650.64532	     1.00295e-16	
      8652.54627	     9.97274e-17	
      8654.44722	     1.02977e-16	
      8656.34817	     1.08886e-16	
      8658.24912	     1.10076e-16	
      8660.15008	     1.01877e-16	
      8662.05103	     9.67520e-17	
      8663.95198	     1.01713e-16	
      8665.85293	     1.08636e-16	
      8667.75388	     1.06264e-16	
      8669.65483	     1.04285e-16	
      8671.55578	     1.07479e-16	
      8673.45673	     1.00809e-16	
      8675.35768	     9.73235e-17	
      8677.25863	     1.01174e-16	
      8679.15958	     1.01155e-16	
      8681.06053	     1.04836e-16	
      8682.96148	     1.07846e-16	
      8684.86243	     1.07463e-16	
      8686.76338	     1.04142e-16	
      8688.66433	     9.10044e-17	
      8690.56528	     8.42715e-17	
      8692.46623	     8.32424e-17	
      8694.36718	     8.57756e-17	
      8696.26813	     8.62348e-17	
      8698.16908	     8.44515e-17	
      8700.07004	     9.01275e-17	
      8701.97099	     8.96876e-17	
      8703.87194	     9.24459e-17	
      8705.77289	     9.48766e-17	
      8707.67384	     9.15071e-17	
      8709.57479	     8.87646e-17	
      8711.47574	     8.88320e-17	
      8713.37669	     9.00993e-17	
      8715.27764	     8.69527e-17	
      8717.17859	     8.26409e-17	
      8719.07954	     8.56572e-17	
      8720.98049	     8.67809e-17	
      8722.88144	     9.25112e-17	
      8724.78239	     9.52986e-17	
      8726.68334	     9.88501e-17	
      8728.58429	     1.00228e-16	
      8730.48524	     9.83933e-17	
      8732.38619	     9.47341e-17	
      8734.28714	     9.86494e-17	
      8736.18809	     9.43993e-17	
      8738.08904	     9.46021e-17	
      8739.98999	     9.78875e-17	
      8741.89095	     1.00108e-16	
      8743.79190	     1.04278e-16	
      8745.69285	     1.08690e-16	
      8747.59380	     1.13010e-16	
      8749.49475	     1.09744e-16	
      8751.39570	     1.08046e-16	
      8753.29665	     1.16516e-16	
      8755.19760	     1.19381e-16	
      8757.09855	     1.18826e-16	
      8758.99950	     1.16506e-16	
      8760.90045	     1.20213e-16	
      8762.80140	     1.14796e-16	
      8764.70235	     1.15665e-16	
      8766.60330	     1.17020e-16	
      8768.50425	     1.24750e-16	
      8770.40520	     1.23212e-16	
      8772.30615	     1.30418e-16	
      8774.20710	     1.34181e-16	
      8776.10805	     1.28778e-16	
      8778.00900	     1.18584e-16	
      8779.90995	     1.21005e-16	
      8781.81091	     1.11312e-16	
      8783.71186	     1.17711e-16	
      8785.61281	     1.24732e-16	
      8787.51376	     1.22745e-16	
      8789.41471	     1.25902e-16	
      8791.31566	     1.33005e-16	
      8793.21661	     1.31471e-16	
      8795.11756	     1.31935e-16	
      8797.01851	     1.30245e-16	
      8798.91946	     1.25121e-16	
      8800.82041	     1.21418e-16	
      8802.72136	     1.15181e-16	
      8804.62231	     1.14017e-16	
      8806.52326	     1.16593e-16	
      8808.42421	     1.23615e-16	
      8810.32516	     1.25814e-16	
      8812.22611	     1.27003e-16	
      8814.12706	     1.37588e-16	
      8816.02801	     1.47019e-16	
      8817.92896	     1.47293e-16	
      8819.82991	     1.38659e-16	
      8821.73087	     1.33163e-16	
      8823.63182	     1.27179e-16	
      8825.53277	     1.22665e-16	
      8827.43372	     1.22350e-16	
      8829.33467	     1.19975e-16	
      8831.23562	     1.37370e-16	
      8833.13657	     1.46004e-16	
      8835.03752	     1.46842e-16	
      8836.93847	     1.44379e-16	
      8838.83942	     1.49037e-16	
      8840.74037	     1.47084e-16	
      8842.64132	     1.46421e-16	
      8844.54227	     1.35594e-16	
      8846.44322	     1.30274e-16	
      8848.34417	     1.32115e-16	
      8850.24512	     1.38084e-16	
      8852.14607	     1.48105e-16	
      8854.04702	     1.50821e-16	
      8855.94797	     1.43447e-16	
      8857.84892	     1.29338e-16	
      8859.74987	     1.16273e-16	
      8861.65083	     1.10828e-16	
      8863.55178	     1.09975e-16	
      8865.45273	     1.04457e-16	
      8867.35368	     1.07668e-16	
      8869.25463	     1.06620e-16	
      8871.15558	     9.60141e-17	
      8873.05653	     8.77273e-17	
      8874.95748	     9.35218e-17	
      8876.85843	     1.04383e-16	
      8878.75938	     1.07773e-16	
      8880.66033	     1.09745e-16	
      8882.56128	     1.12781e-16	
      8884.46223	     1.17970e-16	
      8886.36318	     1.21484e-16	
      8888.26413	     1.17329e-16	
      8890.16508	     1.16653e-16	
      8892.06603	     1.14983e-16	
      8893.96698	     1.11024e-16	
      8895.86793	     1.09688e-16	
      8897.76888	     1.12670e-16	
      8899.66983	     1.22260e-16	
      8901.57079	     1.31479e-16	
      8903.47174	     1.33095e-16	
      8905.37269	     1.32297e-16	
      8907.27364	     1.32756e-16	
      8909.17459	     1.29105e-16	
      8911.07554	     1.24983e-16	
      8912.97649	     1.26390e-16	
      8914.87744	     1.23880e-16	
      8916.77839	     1.31337e-16	
      8918.67934	     1.30714e-16	
      8920.58029	     1.27652e-16	
      8922.48124	     1.24260e-16	
      8924.38219	     1.18833e-16	
      8926.28314	     1.26613e-16	
      8928.18409	     1.37030e-16	
      8930.08504	     1.40507e-16	
      8931.98599	     1.44525e-16	
      8933.88694	     1.42829e-16	
      8935.78789	     1.38246e-16	
      8937.68884	     1.32182e-16	
      8939.58979	     1.26365e-16	
      8941.49075	     1.15118e-16	
      8943.39170	     1.14216e-16	
      8945.29265	     1.23572e-16	
      8947.19360	     1.21412e-16	
      8949.09455	     1.22450e-16	
      8950.99550	     1.25650e-16	
      8952.89645	     1.27754e-16	
      8954.79740	     1.30374e-16	
      8956.69835	     1.32511e-16	
      8958.59930	     1.33919e-16	
      8960.50025	     1.34760e-16	
      8962.40120	     1.24706e-16	
      8964.30215	     1.21617e-16	
      8966.20310	     1.24526e-16	
      8968.10405	     1.23603e-16	
      8970.00500	     1.29930e-16	
      8971.90595	     1.34571e-16	
      8973.80690	     1.41350e-16	
      8975.70785	     1.38825e-16	
      8977.60880	     1.39534e-16	
      8979.50975	     1.39170e-16	
      8981.41071	     1.40842e-16	
      8983.31166	     1.51494e-16	
      8985.21261	     1.46142e-16	
      8987.11356	     1.42463e-16	
      8989.01451	     1.35825e-16	
      8990.91546	     1.35847e-16	
      8992.81641	     1.40754e-16	
      8994.71736	     1.46353e-16	
      8996.61831	     1.38869e-16	
      8998.51926	     1.39580e-16	
      9000.42021	     1.50020e-16	
      9002.32116	     1.55483e-16	
      9004.22211	     1.60969e-16	
      9006.12306	     1.56516e-16	
      9008.02401	     1.56198e-16	
      9009.92496	     1.57407e-16	
      9011.82591	     1.55100e-16	
      9013.72686	     1.54773e-16	
      9015.62781	     1.49315e-16	
      9017.52876	     1.45974e-16	
      9019.42971	     1.41454e-16	
      9021.33067	     1.35048e-16	
      9023.23162	     1.26095e-16	
      9025.13257	     1.30368e-16	
      9027.03352	     1.32332e-16	
      9028.93447	     1.33187e-16	
      9030.83542	     1.42298e-16	
      9032.73637	     1.48052e-16	
      9034.63732	     1.54199e-16	
      9036.53827	     1.65513e-16	
      9038.43922	     1.60628e-16	
      9040.34017	     1.56997e-16	
      9042.24112	     1.58625e-16	
      9044.14207	     1.58299e-16	
      9046.04302	     1.55775e-16	
      9047.94397	     1.59657e-16	
      9049.84492	     1.58735e-16	
      9051.74587	     1.49052e-16	
      9053.64682	     1.43431e-16	
      9055.54777	     1.41269e-16	
      9057.44872	     1.43342e-16	
      9059.34967	     1.43061e-16	
      9061.25063	     1.44470e-16	
      9063.15158	     1.41010e-16	
      9065.05253	     1.38895e-16	
      9066.95348	     1.40995e-16	
      9068.85443	     1.40223e-16	
      9070.75538	     1.35151e-16	
      9072.65633	     1.34197e-16	
      9074.55728	     1.40845e-16	
      9076.45823	     1.49316e-16	
      9078.35918	     1.53254e-16	
      9080.26013	     1.54133e-16	
      9082.16108	     1.49624e-16	
      9084.06203	     1.50206e-16	
      9085.96298	     1.52572e-16	
      9087.86393	     1.53393e-16	
      9089.76488	     1.57421e-16	
      9091.66583	     1.53588e-16	
      9093.56678	     1.55487e-16	
      9095.46773	     1.61139e-16	
      9097.36868	     1.62944e-16	
      9099.26963	     1.65250e-16	
      9101.17059	     1.61877e-16	
      9103.07154	     1.62685e-16	
      9104.97249	     1.60257e-16	
      9106.87344	     1.57175e-16	
      9108.77439	     1.59257e-16	
      9110.67534	     1.68268e-16	
      9112.57629	     1.67992e-16	
      9114.47724	     1.63492e-16	
      9116.37819	     1.67573e-16	
      9118.27914	     1.68183e-16	
      9120.18009	     1.67417e-16	
      9122.08104	     1.68714e-16	
      9123.98199	     1.72814e-16	
      9125.88294	     1.68210e-16	
      9127.78389	     1.67477e-16	
      9129.68484	     1.68163e-16	
      9131.58579	     1.67221e-16	
      9133.48674	     1.69557e-16	
      9135.38769	     1.69151e-16	
      9137.28864	     1.64749e-16	
      9139.18959	     1.63617e-16	
      9141.09055	     1.64556e-16	
      9142.99150	     1.68530e-16	
      9144.89245	     1.72576e-16	
      9146.79340	     1.73021e-16	
      9148.69435	     1.70509e-16	
      9150.59530	     1.74164e-16	
      9152.49625	     1.74781e-16	
      9154.39720	     1.78678e-16	
      9156.29815	     1.88055e-16	
      9158.19910	     1.87452e-16	
      9160.10005	     1.87018e-16	
      9162.00100	     1.82641e-16	
      9163.90195	     1.83782e-16	
      9165.80290	     1.85135e-16	
      9167.70385	     1.87259e-16	
      9169.60480	     1.83738e-16	
      9171.50575	     1.77658e-16	
      9173.40670	     1.73770e-16	
      9175.30765	     1.75293e-16	
      9177.20860	     1.76881e-16	
      9179.10955	     1.77835e-16	
      9181.01051	     1.81280e-16	
      9182.91146	     1.81304e-16	
      9184.81241	     1.86334e-16	
      9186.71336	     1.95370e-16	
      9188.61431	     2.03141e-16	
      9190.51526	     1.95478e-16	
      9192.41621	     1.95150e-16	
      9194.31716	     1.91883e-16	
      9196.21811	     1.96631e-16	
      9198.11906	     1.97771e-16	
      9200.02001	     2.02070e-16	
      9201.92096	     1.94927e-16	
      9203.82191	     1.98269e-16	
      9205.72286	     1.85056e-16	
      9207.62381	     1.76560e-16	
      9209.52476	     1.75797e-16	
      9211.42571	     1.73705e-16	
      9213.32666	     1.80170e-16	
      9215.22761	     1.78207e-16	
      9217.12856	     1.75045e-16	
      9219.02951	     1.76711e-16	
      9220.93047	     1.75960e-16	
      9222.83142	     1.69149e-16	
      9224.73237	     1.71413e-16	
      9226.63332	     1.72362e-16	
      9228.53427	     1.66465e-16	
      9230.43522	     1.66074e-16	
      9232.33617	     1.68681e-16	
      9234.23712	     1.59977e-16	
      9236.13807	     1.58762e-16	
      9238.03902	     1.62071e-16	
      9239.93997	     1.70418e-16	
      9241.84092	     1.68552e-16	
      9243.74187	     1.63356e-16	
      9245.64282	     1.62231e-16	
      9247.54377	     1.54920e-16	
      9249.44472	     1.54587e-16	
      9251.34567	     1.52089e-16	
      9253.24662	     1.61768e-16	
      9255.14757	     1.69303e-16	
      9257.04852	     1.71503e-16	
      9258.94947	     1.72633e-16	
      9260.85043	     1.70613e-16	
      9262.75138	     1.62927e-16	
      9264.65233	     1.66878e-16	
      9266.55328	     1.76222e-16	
      9268.45423	     1.73752e-16	
      9270.35518	     1.69745e-16	
      9272.25613	     1.59535e-16	
      9274.15708	     1.53130e-16	
      9276.05803	     1.52588e-16	
      9277.95898	     1.50483e-16	
      9279.85993	     1.55931e-16	
      9281.76088	     1.59478e-16	
      9283.66183	     1.60172e-16	
      9285.56278	     1.64463e-16	
      9287.46373	     1.61692e-16	
      9289.36468	     1.61076e-16	
      9291.26563	     1.62595e-16	
      9293.16658	     1.61731e-16	
      9295.06753	     1.58556e-16	
      9296.96848	     1.51044e-16	
      9298.86943	     1.45685e-16	
      9300.77039	     1.49014e-16	
      9302.67134	     1.47097e-16	
      9304.57229	     1.38028e-16	
      9306.47324	     1.36382e-16	
      9308.37419	     1.48475e-16	
      9310.27514	     1.51464e-16	
      9312.17609	     1.50746e-16	
      9314.07704	     1.51449e-16	
      9315.97799	     1.45891e-16	
      9317.87894	     1.43630e-16	
      9319.77989	     1.41510e-16	
      9321.68084	     1.38376e-16	
      9323.58179	     1.29137e-16	
      9325.48274	     1.32571e-16	
      9327.38369	     1.33350e-16	
      9329.28464	     1.37059e-16	
      9331.18559	     1.36986e-16	
      9333.08654	     1.36101e-16	
      9334.98749	     1.39638e-16	
      9336.88844	     1.41842e-16	
      9338.78939	     1.35890e-16	
      9340.69035	     1.26735e-16	
      9342.59130	     1.24895e-16	
      9344.49225	     1.35496e-16	
      9346.39320	     1.46610e-16	
      9348.29415	     1.51199e-16	
      9350.19510	     1.53707e-16	
      9352.09605	     1.47373e-16	
      9353.99700	     1.38232e-16	
      9355.89795	     1.39612e-16	
      9357.79890	     1.44957e-16	
      9359.69985	     1.50973e-16	
      9361.60080	     1.55588e-16	
      9363.50175	     1.56621e-16	
      9365.40270	     1.52285e-16	
      9367.30365	     1.36292e-16	
      9369.20460	     1.31780e-16	
      9371.10555	     1.31760e-16	
      9373.00650	     1.43072e-16	
      9374.90745	     1.44530e-16	
      9376.80840	     1.45781e-16	
      9378.70935	     1.43002e-16	
      9380.61031	     1.45381e-16	
      9382.51126	     1.47918e-16	
      9384.41221	     1.44257e-16	
      9386.31316	     1.47336e-16	
      9388.21411	     1.55803e-16	
      9390.11506	     1.64707e-16	
      9392.01601	     1.68271e-16	
      9393.91696	     1.63832e-16	
      9395.81791	     1.62157e-16	
      9397.71886	     1.56650e-16	
      9399.61981	     1.58127e-16	
      9401.52076	     1.66604e-16	
      9403.42171	     1.56695e-16	
      9405.32266	     1.56339e-16	
      9407.22361	     1.57757e-16	
      9409.12456	     1.58533e-16	
      9411.02551	     1.67805e-16	
      9412.92646	     1.60924e-16	
      9414.82741	     1.51236e-16	
      9416.72836	     1.58503e-16	
      9418.62931	     1.66379e-16	
      9420.53027	     1.73627e-16	
      9422.43122	     1.68119e-16	
      9424.33217	     1.61453e-16	
      9426.23312	     1.54559e-16	
      9428.13407	     1.61041e-16	
      9430.03502	     1.70473e-16	
      9431.93597	     1.82754e-16	
      9433.83692	     1.86069e-16	
      9435.73787	     1.80163e-16	
      9437.63882	     1.75924e-16	
      9439.53977	     1.68383e-16	
      9441.44072	     1.65862e-16	
      9443.34167	     1.73306e-16	
      9445.24262	     1.66981e-16	
      9447.14357	     1.72214e-16	
      9449.04452	     1.69818e-16	
      9450.94547	     1.66002e-16	
      9452.84642	     1.61668e-16	
      9454.74737	     1.58732e-16	
      9456.64832	     1.56181e-16	
      9458.54927	     1.40328e-16	
      9460.45023	     1.45049e-16	
      9462.35118	     1.61359e-16	
      9464.25213	     1.63017e-16	
      9466.15308	     1.70013e-16	
      9468.05403	     1.70698e-16	
      9469.95498	     1.80308e-16	
      9471.85593	     1.95322e-16	
      9473.75688	     1.96707e-16	
      9475.65783	     1.92087e-16	
      9477.55878	     1.86876e-16	
      9479.45973	     1.89672e-16	
      9481.36068	     1.86200e-16	
      9483.26163	     1.90315e-16	
      9485.16258	     1.98114e-16	
      9487.06353	     2.04265e-16	
      9488.96448	     2.06717e-16	
      9490.86543	     1.93377e-16	
      9492.76638	     1.80118e-16	
      9494.66733	     1.68372e-16	
      9496.56828	     1.58979e-16	
      9498.46923	     1.63889e-16	
      9500.37019	     1.63300e-16	
      9502.27114	     1.59158e-16	
      9504.17209	     1.68380e-16	
      9506.07304	     1.87531e-16	
      9507.97399	     1.96199e-16	
      9509.87494	     1.92310e-16	
      9511.77589	     1.97779e-16	
      9513.67684	     2.14456e-16	
      9515.57779	     2.06113e-16	
      9517.47874	     2.01779e-16	
      9519.37969	     2.22012e-16	
      9521.28064	     2.13398e-16	
      9523.18159	     1.98076e-16	
      9525.08254	     2.01861e-16	
      9526.98349	     2.09442e-16	
      9528.88444	     2.06062e-16	
      9530.78539	     2.03982e-16	
      9532.68634	     1.93835e-16	
      9534.58729	     1.84549e-16	
      9536.48824	     1.90233e-16	
      9538.38919	     1.78292e-16	
      9540.29015	     1.78765e-16	
      9542.19110	     1.74026e-16	
      9544.09205	     1.81883e-16	
      9545.99300	     1.87535e-16	
      9547.89395	     1.82479e-16	
      9549.79490	     1.82228e-16	
      9551.69585	     1.84042e-16	
      9553.59680	     1.83696e-16	
      9555.49775	     1.82457e-16	
      9557.39870	     1.95842e-16	
      9559.29965	     2.07330e-16	
      9561.20060	     2.00234e-16	
      9563.10155	     1.93205e-16	
      9565.00250	     1.88621e-16	
      9566.90345	     1.80891e-16	
      9568.80440	     1.88518e-16	
      9570.70535	     1.95852e-16	
      9572.60630	     2.05699e-16	
      9574.50725	     2.03203e-16	
      9576.40820	     1.97376e-16	
      9578.30915	     1.92713e-16	
      9580.21011	     2.02288e-16	
      9582.11106	     1.97546e-16	
      9584.01201	     1.98390e-16	
      9585.91296	     1.90769e-16	
      9587.81391	     1.82247e-16	
      9589.71486	     1.74431e-16	
      9591.61581	     1.74993e-16	
      9593.51676	     1.85645e-16	
      9595.41771	     1.76411e-16	
      9597.31866	     1.78042e-16	
      9599.21961	     1.76301e-16	
      9601.12056	     1.77767e-16	
      9603.02151	     1.86329e-16	
      9604.92246	     1.86908e-16	
      9606.82341	     1.76531e-16	
      9608.72436	     1.80304e-16	
      9610.62531	     1.94312e-16	
      9612.52626	     1.94094e-16	
      9614.42721	     1.93785e-16	
      9616.32816	     1.89556e-16	
      9618.22911	     1.93837e-16	
      9620.13007	     1.96412e-16	
      9622.03102	     1.92725e-16	
      9623.93197	     1.88839e-16	
      9625.83292	     1.96745e-16	
      9627.73387	     1.93933e-16	
      9629.63482	     1.99533e-16	
      9631.53577	     1.88868e-16	
      9633.43672	     1.81173e-16	
      9635.33767	     1.68877e-16	
      9637.23862	     1.69255e-16	
      9639.13957	     1.72360e-16	
      9641.04052	     1.72688e-16	
      9642.94147	     1.80078e-16	
      9644.84242	     1.82984e-16	
      9646.74337	     1.88137e-16	
      9648.64432	     2.03445e-16	
      9650.54527	     1.99685e-16	
      9652.44622	     1.97908e-16	
      9654.34717	     1.98121e-16	
      9656.24812	     2.01541e-16	
      9658.14907	     2.07033e-16	
      9660.05003	     2.07686e-16	
      9661.95098	     2.01310e-16	
      9663.85193	     1.94013e-16	
      9665.75288	     2.03393e-16	
      9667.65383	     2.03125e-16	
      9669.55478	     2.02605e-16	
      9671.45573	     2.03163e-16	
      9673.35668	     2.00621e-16	
      9675.25763	     2.08440e-16	
      9677.15858	     2.15837e-16	
      9679.05953	     2.11341e-16	
      9680.96048	     2.21959e-16	
      9682.86143	     2.24718e-16	
      9684.76238	     2.20769e-16	
      9686.66333	     2.16102e-16	
      9688.56428	     2.09538e-16	
      9690.46523	     2.14111e-16	
      9692.36618	     2.33814e-16	
      9694.26713	     2.31306e-16	
      9696.16808	     2.24797e-16	
      9698.06903	     2.35952e-16	
      9699.96998	     2.33271e-16	
      9701.87094	     2.13420e-16	
      9703.77189	     2.05129e-16	
      9705.67284	     2.01623e-16	
      9707.57379	     2.10651e-16	
      9709.47474	     2.18341e-16	
      9711.37569	     2.12060e-16	
      9713.27664	     2.25670e-16	
      9715.17759	     2.20580e-16	
      9717.07854	     2.21140e-16	
      9718.97949	     2.30809e-16	
      9720.88044	     2.16564e-16	
      9722.78139	     2.18740e-16	
      9724.68234	     2.20882e-16	
      9726.58329	     2.08947e-16	
      9728.48424	     2.13744e-16	
      9730.38519	     2.07265e-16	
      9732.28614	     2.14675e-16	
      9734.18709	     2.21146e-16	
      9736.08804	     2.13417e-16	
      9737.98899	     1.97648e-16	
      9739.88994	     2.06829e-16	
      9741.79090	     2.01032e-16	
      9743.69185	     2.08792e-16	
      9745.59280	     2.04009e-16	
      9747.49375	     1.88575e-16	
      9749.39470	     2.06094e-16	
      9751.29565	     2.06815e-16	
      9753.19660	     2.15012e-16	
      9755.09755	     2.14827e-16	
      9756.99850	     2.01013e-16	
      9758.89945	     2.18509e-16	
      9760.80040	     2.12801e-16	
      9762.70135	     2.08777e-16	
      9764.60230	     2.29174e-16	
      9766.50325	     2.39482e-16	
      9768.40420	     2.26771e-16	
      9770.30515	     2.23729e-16	
      9772.20610	     2.31896e-16	
      9774.10705	     2.30954e-16	
      9776.00800	     2.30846e-16	
      9777.90895	     2.21306e-16	
      9779.80990	     2.06049e-16	
      9781.71086	     2.15132e-16	
      9783.61181	     2.21607e-16	
      9785.51276	     2.35287e-16	
      9787.41371	     2.35078e-16	
      9789.31466	     2.16685e-16	
      9791.21561	     2.27301e-16	
      9793.11656	     2.46477e-16	
      9795.01751	     2.34809e-16	
      9796.91846	     2.21420e-16	
      9798.81941	     2.17765e-16	
      9800.72036	     2.04523e-16	
      9802.62131	     2.20649e-16	
      9804.52226	     2.28293e-16	
      9806.42321	     2.34813e-16	
      9808.32416	     2.26414e-16	
      9810.22511	     2.29985e-16	
      9812.12606	     2.22443e-16	
      9814.02701	     2.20962e-16	
      9815.92796	     2.28100e-16	
      9817.82891	     2.26074e-16	
      9819.72986	     2.09703e-16	
      9821.63082	     2.20740e-16	
      9823.53177	     2.30474e-16	
      9825.43272	     2.36834e-16	
      9827.33367	     2.26108e-16	
      9829.23462	     2.18417e-16	
      9831.13557	     2.13816e-16	
      9833.03652	     2.18287e-16	
      9834.93747	     2.30247e-16	
      9836.83842	     2.30782e-16	
      9838.73937	     2.31925e-16	
      9840.64032	     2.33703e-16	
      9842.54127	     2.28169e-16	
      9844.44222	     2.37870e-16	
      9846.34317	     2.23433e-16	
      9848.24412	     2.42482e-16	
      9850.14507	     2.24939e-16	
      9852.04602	     2.29605e-16	
      9853.94697	     2.12160e-16	
      9855.84792	     2.28019e-16	
      9857.74887	     2.22662e-16	
      9859.64982	     2.44920e-16	
      9861.55078	     2.51618e-16	
      9863.45173	     2.47805e-16	
      9865.35268	     2.42650e-16	
      9867.25363	     2.55610e-16	
      9869.15458	     2.44299e-16	
      9871.05553	     2.62433e-16	
      9872.95648	     2.92483e-16	
      9874.85743	     2.90016e-16	
      9876.75838	     2.89242e-16	
      9878.65933	     2.60302e-16	
      9880.56028	     2.53370e-16	
      9882.46123	     2.68532e-16	
      9884.36218	     2.74537e-16	
      9886.26313	     2.72724e-16	
      9888.16408	     2.94052e-16	
      9890.06503	     2.46131e-16	
      9891.96598	     2.23466e-16	
      9893.86693	     2.05513e-16	
      9895.76788	     1.91389e-16	
      9897.66883	     1.77258e-16	
      9899.56978	     1.81338e-16	
      9901.47074	     1.58544e-16	
      9903.37169	     1.54385e-16	
      9905.27264	     1.49438e-16	
      9907.17359	     1.47259e-16	
      9909.07454	     1.46136e-16	
      9910.97549	     1.53355e-16	
      9912.87644	     1.57680e-16	
      9914.77739	     1.53527e-16	
      9916.67834	     1.51811e-16	
      9918.57929	     1.70688e-16	
      9920.48024	     1.71720e-16	
      9922.38119	     1.49103e-16	
      9924.28214	     1.59666e-16	
      9926.18309	     1.63249e-16	
      9928.08404	     1.40904e-16	
      9929.98499	     1.58017e-16	
      9931.88594	     1.56631e-16	
      9933.78689	     1.63413e-16	
      9935.68784	     1.57903e-16	
      9937.58879	     1.64512e-16	
      9939.48974	     1.88599e-16	
      9941.39070	     1.96027e-16	
      9943.29165	     1.75292e-16	
      9945.19260	     1.92605e-16	
      9947.09355	     2.18869e-16	
      9948.99450	     1.86926e-16	
      9950.89545	     1.78137e-16	
      9952.79640	     1.80091e-16	
      9954.69735	     1.85619e-16	
      9956.59830	     1.64251e-16	
      9958.49925	     1.84468e-16	
      9960.40020	     2.28613e-16	
      9962.30115	     2.08076e-16	
      9964.20210	     1.98704e-16	
      9966.10305	     2.14134e-16	
      9968.00400	     1.98174e-16	
      9969.90495	     1.79840e-16	
      9971.80590	     1.92361e-16	
      9973.70685	     1.82223e-16	
      9975.60780	     1.70139e-16	
      9977.50875	     1.85602e-16	
      9979.40970	     1.71194e-16	
      9981.31066	     1.69764e-16	
      9983.21161	     1.82589e-16	
      9985.11256	     1.69510e-16	
      9987.01351	     1.83158e-16	
      9988.91446	     1.80696e-16	
      9990.81541	     1.76887e-16	
      9992.71636	     1.69143e-16	
      9994.61731	     1.63005e-16	
      9996.51826	     1.86375e-16	
      9998.41921	     2.04740e-16	
     10000.32016	     1.99121e-16	
     10002.22111	     1.89160e-16	
     10004.12206	     2.18239e-16	
     10006.02301	     2.18822e-16	
     10007.92396	     2.18687e-16	
     10009.82491	     1.98529e-16	
     10011.72586	     2.04596e-16	
     10013.62681	     2.66363e-16	
     10015.52776	     2.70140e-16	
     10017.42871	     2.42863e-16	
     10019.32966	     2.06154e-16	
     10021.23062	     2.32600e-16	
     10023.13157	     2.39450e-16	
     10025.03252	     2.44731e-16	
     10026.93347	     2.44332e-16	
     10028.83442	     1.99172e-16	
     10030.73537	     2.13153e-16	
     10032.63632	     2.19628e-16	
     10034.53727	     1.91197e-16	
     10036.43822	     1.94803e-16	
     10038.33917	     1.79393e-16	
     10040.24012	     1.68821e-16	
     10042.14107	     1.93511e-16	
     10044.04202	     1.88249e-16	
     10045.94297	     1.67727e-16	
     10047.84392	     1.77962e-16	
     10049.74487	     1.83487e-16	
     10051.64582	     1.70529e-16	
     10053.54677	     1.65613e-16	
     10055.44772	     1.61733e-16	
     10057.34867	     1.66835e-16	
     10059.24962	     1.77902e-16	
     10061.15058	     1.90314e-16	
     10063.05153	     1.75348e-16	
     10064.95248	     1.69097e-16	
     10066.85343	     2.13375e-16	
     10068.75438	     2.16572e-16	
     10070.65533	     2.09851e-16	
     10072.55628	     1.99451e-16	
     10074.45723	     2.17965e-16	
     10076.35818	     2.22069e-16	
     10078.25913	     2.27978e-16	
     10080.16008	     2.41946e-16	
     10082.06103	     2.37583e-16	
     10083.96198	     2.67817e-16	
     10085.86293	     2.39832e-16	
     10087.76388	     2.48711e-16	
     10089.66483	     2.47883e-16	
     10091.56578	     2.19384e-16	
     10093.46673	     2.09911e-16	
     10095.36768	     2.48213e-16	
     10097.26863	     2.56726e-16	
     10099.16958	     2.69128e-16	
     10101.07054	     2.64611e-16	
     10102.97149	     2.63881e-16	
     10104.87244	     2.70619e-16	
     10106.77339	     2.72869e-16	
     10108.67434	     2.59257e-16	
     10110.57529	     2.36115e-16	
     10112.47624	     2.21287e-16	
     10114.37719	     2.34707e-16	
     10116.27814	     2.33852e-16	
     10118.17909	     2.21323e-16	
     10120.08004	     2.41692e-16	
     10121.98099	     1.98394e-16	
     10123.88194	     1.41375e-16	
     10125.78289	     1.77814e-16	
     10127.68384	     1.90756e-16	
     10129.58479	     1.76853e-16	
     10131.48574	     2.19182e-16	
     10133.38669	     2.03551e-16	
     10135.28764	     1.52359e-16	
     10137.18859	     1.67632e-16	
     10139.08954	     1.90076e-16	
     10140.99050	     1.88103e-16	
     10142.89145	     2.19326e-16	
     10144.79240	     2.26158e-16	
     10146.69335	     2.37281e-16	
     10148.59430	     2.70774e-16	
     10150.49525	     2.66056e-16	
     10152.39620	     2.42358e-16	
     10154.29715	     2.51090e-16	
     10156.19810	     2.75241e-16	
     10158.09905	     2.75750e-16	
     10160.00000	     2.51149e-16	
#time:0.025574
