# Keck LRIS spectra of late-M, L and T dwarfs
# spty = M8  (Spectral type)
#
#     WAVELENGTH	#           FLUX	
#     (ANGSTROM)	#  (ERG/CM2/S/A)	
################	################	
      6300.00000	     2.56800e-18	
      6301.90000	     4.75322e-18	
      6303.80000	     3.73711e-18	
      6305.70000	     2.73100e-18	
      6307.60000	     1.06746e-18	
      6309.50000	     3.22193e-18	
      6311.40000	     2.58145e-18	
      6313.30000	     1.92395e-18	
      6315.20000	     3.78132e-18	
      6317.10000	     4.12936e-18	
      6319.00000	     1.61928e-18	
      6320.90000	     1.91556e-18	
      6322.80000	     2.66931e-19	
      6324.70000	     1.88844e-18	
      6326.60000	     2.79248e-18	
      6328.50000	     3.35940e-18	
      6330.40000	     3.31726e-18	
      6332.30000	     3.26716e-18	
      6334.20000	     2.72925e-18	
      6336.10000	     2.65918e-18	
      6338.00000	     3.13368e-18	
      6339.90000	     4.47004e-18	
      6341.80000	     4.49831e-18	
      6343.70000	     2.58775e-18	
      6345.60000	     3.09438e-18	
      6347.50000	     2.99796e-18	
      6349.40000	     2.30805e-18	
      6351.30000	     2.45639e-18	
      6353.20000	     2.96016e-18	
      6355.10000	     2.96057e-18	
      6357.00000	     3.05846e-18	
      6358.90000	     4.10559e-18	
      6360.80000	     3.15604e-18	
      6362.70000	     4.36485e-18	
      6364.60000	     6.27892e-18	
      6366.50000	     4.36118e-18	
      6368.40000	     4.28782e-18	
      6370.30000	     3.48341e-18	
      6372.20000	     4.07172e-18	
      6374.10000	     3.67457e-18	
      6376.00000	     3.01547e-18	
      6377.90000	     4.44208e-18	
      6379.80000	     3.48056e-18	
      6381.70000	     2.74029e-18	
      6383.60000	     3.22852e-18	
      6385.50000	     2.83704e-18	
      6387.40000	     3.41966e-18	
      6389.30000	     2.07353e-18	
      6391.20000	     1.90235e-18	
      6393.10000	     3.45434e-18	
      6395.00000	     3.51608e-18	
      6396.90000	     2.95334e-18	
      6398.80000	     2.92997e-18	
      6400.70000	     5.70759e-18	
      6402.60000	     4.17769e-18	
      6404.50000	     4.47534e-18	
      6406.40000	     4.72546e-18	
      6408.30000	     2.62220e-18	
      6410.20000	     3.14317e-18	
      6412.10000	     2.43812e-18	
      6414.00000	     2.93703e-18	
      6415.90000	     4.49384e-18	
      6417.80000	     3.75909e-18	
      6419.70000	     3.86397e-18	
      6421.60000	     4.27117e-18	
      6423.50000	     3.10392e-18	
      6425.40000	     2.42942e-18	
      6427.30000	     3.77084e-18	
      6429.20000	     4.04814e-18	
      6431.10000	     2.63173e-18	
      6433.00000	     3.50084e-18	
      6434.90000	     3.66101e-18	
      6436.80000	     3.01570e-18	
      6438.70000	     3.92752e-18	
      6440.60000	     3.91054e-18	
      6442.50000	     4.64324e-18	
      6444.40000	     3.91232e-18	
      6446.30000	     2.06585e-18	
      6448.20000	     2.89686e-18	
      6450.10000	     2.82427e-18	
      6452.00000	     2.36350e-18	
      6453.90000	     2.80837e-18	
      6455.80000	     4.83559e-18	
      6457.70000	     5.54468e-18	
      6459.60000	     4.35030e-18	
      6461.50000	     5.05665e-18	
      6463.40000	     5.00503e-18	
      6465.30000	     5.18542e-18	
      6467.20000	     4.22092e-18	
      6469.10000	     3.16585e-18	
      6471.00000	     3.43532e-18	
      6472.90000	     4.71977e-18	
      6474.80000	     4.76651e-18	
      6476.70000	     4.27742e-18	
      6478.60000	     4.23662e-18	
      6480.50000	     4.38814e-18	
      6482.40000	     4.45339e-18	
      6484.30000	     4.95655e-18	
      6486.20000	     3.64989e-18	
      6488.10000	     4.05208e-18	
      6490.00000	     3.94655e-18	
      6491.90000	     3.41201e-18	
      6493.80000	     5.30605e-18	
      6495.70000	     4.48028e-18	
      6497.60000	     5.17319e-18	
      6499.50000	     4.68674e-18	
      6501.40000	     5.19117e-18	
      6503.30000	     5.71460e-18	
      6505.20000	     4.77103e-18	
      6507.10000	     6.48597e-18	
      6509.00000	     7.82853e-18	
      6510.90000	     6.69945e-18	
      6512.80000	     6.71072e-18	
      6514.70000	     6.67152e-18	
      6516.60000	     6.44785e-18	
      6518.50000	     6.41704e-18	
      6520.40000	     6.70254e-18	
      6522.30000	     8.36765e-18	
      6524.20000	     7.76450e-18	
      6526.10000	     7.74890e-18	
      6528.00000	     7.42172e-18	
      6529.90000	     8.32765e-18	
      6531.80000	     6.75339e-18	
      6533.70000	     8.84005e-18	
      6535.60000	     8.53553e-18	
      6537.50000	     9.25390e-18	
      6539.40000	     1.11565e-17	
      6541.30000	     9.20140e-18	
      6543.20000	     8.52996e-18	
      6545.10000	     8.51195e-18	
      6547.00000	     8.20992e-18	
      6548.90000	     9.29956e-18	
      6550.80000	     7.69763e-18	
      6552.70000	     6.45690e-18	
      6554.60000	     6.42130e-18	
      6556.50000	     7.10915e-18	
      6558.40000	     8.18995e-18	
      6560.30000	     1.06970e-17	
      6562.20000	     1.17404e-17	
      6564.10000	     1.15722e-17	
      6566.00000	     9.53602e-18	
      6567.90000	     8.03625e-18	
      6569.80000	     7.11332e-18	
      6571.70000	     6.65509e-18	
      6573.60000	     6.26204e-18	
      6575.50000	     6.68437e-18	
      6577.40000	     4.50508e-18	
      6579.30000	     4.37558e-18	
      6581.20000	     4.50617e-18	
      6583.10000	     5.25170e-18	
      6585.00000	     6.03832e-18	
      6586.90000	     6.95252e-18	
      6588.80000	     6.57088e-18	
      6590.70000	     5.41268e-18	
      6592.60000	     5.77960e-18	
      6594.50000	     5.44237e-18	
      6596.40000	     4.50961e-18	
      6598.30000	     4.97458e-18	
      6600.20000	     3.81720e-18	
      6602.10000	     4.34673e-18	
      6604.00000	     5.56823e-18	
      6605.90000	     4.57012e-18	
      6607.80000	     5.00168e-18	
      6609.70000	     5.09314e-18	
      6611.60000	     5.47907e-18	
      6613.50000	     5.66289e-18	
      6615.40000	     5.49350e-18	
      6617.30000	     5.05629e-18	
      6619.20000	     5.18627e-18	
      6621.10000	     5.53778e-18	
      6623.00000	     4.64747e-18	
      6624.90000	     4.18060e-18	
      6626.80000	     4.21510e-18	
      6628.70000	     5.05931e-18	
      6630.60000	     5.63253e-18	
      6632.50000	     5.65989e-18	
      6634.40000	     5.68757e-18	
      6636.30000	     5.38174e-18	
      6638.20000	     4.34623e-18	
      6640.10000	     5.02675e-18	
      6642.00000	     4.29817e-18	
      6643.90000	     4.75725e-18	
      6645.80000	     5.17536e-18	
      6647.70000	     4.58481e-18	
      6649.60000	     4.65087e-18	
      6651.50000	     2.94131e-18	
      6653.40000	     2.89162e-18	
      6655.30000	     3.18351e-18	
      6657.20000	     4.01044e-18	
      6659.10000	     4.19321e-18	
      6661.00000	     4.50121e-18	
      6662.90000	     4.59446e-18	
      6664.80000	     5.29293e-18	
      6666.70000	     4.25121e-18	
      6668.60000	     3.75147e-18	
      6670.50000	     4.71591e-18	
      6672.40000	     4.61376e-18	
      6674.30000	     4.77412e-18	
      6676.20000	     4.51270e-18	
      6678.10000	     4.61672e-18	
      6680.00000	     4.55054e-18	
      6681.90000	     3.15423e-18	
      6683.80000	     3.14904e-18	
      6685.70000	     3.96422e-18	
      6687.60000	     4.92313e-18	
      6689.50000	     5.26044e-18	
      6691.40000	     3.14898e-18	
      6693.30000	     2.57795e-18	
      6695.20000	     3.56017e-18	
      6697.10000	     3.00873e-18	
      6699.00000	     3.79274e-18	
      6700.90000	     4.31864e-18	
      6702.80000	     3.44960e-18	
      6704.70000	     4.47401e-18	
      6706.60000	     4.91202e-18	
      6708.50000	     5.13319e-18	
      6710.40000	     4.18225e-18	
      6712.30000	     2.77404e-18	
      6714.20000	     2.70724e-18	
      6716.10000	     3.04156e-18	
      6718.00000	     2.80853e-18	
      6719.90000	     3.90143e-18	
      6721.80000	     4.26469e-18	
      6723.70000	     3.40090e-18	
      6725.60000	     4.14842e-18	
      6727.50000	     3.53859e-18	
      6729.40000	     5.92983e-18	
      6731.30000	     6.33793e-18	
      6733.20000	     5.04420e-18	
      6735.10000	     5.00323e-18	
      6737.00000	     3.16287e-18	
      6738.90000	     2.79986e-18	
      6740.80000	     4.68255e-18	
      6742.70000	     4.01416e-18	
      6744.60000	     4.07821e-18	
      6746.50000	     4.34175e-18	
      6748.40000	     4.47756e-18	
      6750.30000	     4.28238e-18	
      6752.20000	     4.33912e-18	
      6754.10000	     3.94804e-18	
      6756.00000	     4.60890e-18	
      6757.90000	     4.70355e-18	
      6759.80000	     4.52490e-18	
      6761.70000	     5.15373e-18	
      6763.60000	     4.87765e-18	
      6765.50000	     4.80195e-18	
      6767.40000	     5.69999e-18	
      6769.30000	     5.69377e-18	
      6771.20000	     4.49077e-18	
      6773.10000	     4.48726e-18	
      6775.00000	     5.48477e-18	
      6776.90000	     5.61597e-18	
      6778.80000	     4.71737e-18	
      6780.70000	     3.68706e-18	
      6782.60000	     3.48314e-18	
      6784.50000	     4.02053e-18	
      6786.40000	     4.53981e-18	
      6788.30000	     4.12505e-18	
      6790.20000	     3.91007e-18	
      6792.10000	     4.13696e-18	
      6794.00000	     4.59706e-18	
      6795.90000	     3.93655e-18	
      6797.80000	     4.48257e-18	
      6799.70000	     4.29334e-18	
      6801.60000	     4.05606e-18	
      6803.50000	     5.60130e-18	
      6805.40000	     5.34189e-18	
      6807.30000	     4.94106e-18	
      6809.20000	     5.62387e-18	
      6811.10000	     4.70254e-18	
      6813.00000	     6.06165e-18	
      6814.90000	     6.10787e-18	
      6816.80000	     5.03603e-18	
      6818.70000	     5.40012e-18	
      6820.60000	     5.02152e-18	
      6822.50000	     4.37386e-18	
      6824.40000	     4.03094e-18	
      6826.30000	     3.89663e-18	
      6828.20000	     4.96425e-18	
      6830.10000	     5.68201e-18	
      6832.00000	     5.29654e-18	
      6833.90000	     5.32909e-18	
      6835.80000	     5.80145e-18	
      6837.70000	     6.02277e-18	
      6839.60000	     5.35470e-18	
      6841.50000	     4.68979e-18	
      6843.40000	     5.97813e-18	
      6845.30000	     5.97275e-18	
      6847.20000	     6.41667e-18	
      6849.10000	     6.12445e-18	
      6851.00000	     5.58229e-18	
      6852.90000	     5.50060e-18	
      6854.80000	     5.62526e-18	
      6856.70000	     5.49718e-18	
      6858.60000	     5.98038e-18	
      6860.50000	     6.34347e-18	
      6862.40000	     5.69497e-18	
      6864.30000	     6.73971e-18	
      6866.20000	     7.02081e-18	
      6868.10000	     3.08329e-18	
      6870.00000	     3.58587e-18	
      6871.90000	     3.80908e-18	
      6873.80000	     3.93183e-18	
      6875.70000	     5.20220e-18	
      6877.60000	     4.77197e-18	
      6879.50000	     5.41602e-18	
      6881.40000	     5.93286e-18	
      6883.30000	     5.62042e-18	
      6885.20000	     5.19678e-18	
      6887.10000	     5.61277e-18	
      6889.00000	     6.29165e-18	
      6890.90000	     5.72520e-18	
      6892.80000	     5.01976e-18	
      6894.70000	     5.30024e-18	
      6896.60000	     6.31536e-18	
      6898.50000	     5.44663e-18	
      6900.40000	     5.30846e-18	
      6902.30000	     5.61120e-18	
      6904.20000	     6.41090e-18	
      6906.10000	     6.21181e-18	
      6908.00000	     6.80719e-18	
      6909.90000	     7.45579e-18	
      6911.80000	     7.22012e-18	
      6913.70000	     7.42132e-18	
      6915.60000	     5.60791e-18	
      6917.50000	     5.70769e-18	
      6919.40000	     7.55983e-18	
      6921.30000	     6.40636e-18	
      6923.20000	     7.10537e-18	
      6925.10000	     7.91578e-18	
      6927.00000	     8.40951e-18	
      6928.90000	     8.54240e-18	
      6930.80000	     8.31809e-18	
      6932.70000	     9.24168e-18	
      6934.60000	     9.02596e-18	
      6936.50000	     8.99007e-18	
      6938.40000	     8.79943e-18	
      6940.30000	     9.32372e-18	
      6942.20000	     8.66218e-18	
      6944.10000	     9.55307e-18	
      6946.00000	     1.18914e-17	
      6947.90000	     1.07681e-17	
      6949.80000	     1.09379e-17	
      6951.70000	     1.14124e-17	
      6953.60000	     1.05208e-17	
      6955.50000	     1.03607e-17	
      6957.40000	     1.05145e-17	
      6959.30000	     1.08973e-17	
      6961.20000	     1.10004e-17	
      6963.10000	     1.17935e-17	
      6965.00000	     1.24865e-17	
      6966.90000	     1.32443e-17	
      6968.80000	     1.27349e-17	
      6970.70000	     1.11986e-17	
      6972.60000	     1.21840e-17	
      6974.50000	     1.19930e-17	
      6976.40000	     1.29962e-17	
      6978.30000	     1.20038e-17	
      6980.20000	     1.19120e-17	
      6982.10000	     1.23923e-17	
      6984.00000	     1.20726e-17	
      6985.90000	     1.32208e-17	
      6987.80000	     1.24252e-17	
      6989.70000	     1.33187e-17	
      6991.60000	     1.25406e-17	
      6993.50000	     1.21890e-17	
      6995.40000	     1.20274e-17	
      6997.30000	     1.23290e-17	
      6999.20000	     1.20650e-17	
      7001.10000	     1.17378e-17	
      7003.00000	     1.26617e-17	
      7004.90000	     1.36907e-17	
      7006.80000	     1.35868e-17	
      7008.70000	     1.40605e-17	
      7010.60000	     1.43691e-17	
      7012.50000	     1.46043e-17	
      7014.40000	     1.42367e-17	
      7016.30000	     1.38628e-17	
      7018.20000	     1.45650e-17	
      7020.10000	     1.52959e-17	
      7022.00000	     1.45655e-17	
      7023.90000	     1.43803e-17	
      7025.80000	     1.52344e-17	
      7027.70000	     1.70924e-17	
      7029.60000	     1.62244e-17	
      7031.50000	     1.73916e-17	
      7033.40000	     1.85928e-17	
      7035.30000	     1.75900e-17	
      7037.20000	     1.83521e-17	
      7039.10000	     1.87627e-17	
      7041.00000	     1.86099e-17	
      7042.90000	     1.88586e-17	
      7044.80000	     1.99172e-17	
      7046.70000	     1.94803e-17	
      7048.60000	     1.89251e-17	
      7050.50000	     1.81688e-17	
      7052.40000	     1.60764e-17	
      7054.30000	     1.15805e-17	
      7056.20000	     8.04771e-18	
      7058.10000	     6.73362e-18	
      7060.00000	     5.20156e-18	
      7061.90000	     5.84397e-18	
      7063.80000	     5.99029e-18	
      7065.70000	     6.80084e-18	
      7067.60000	     7.81797e-18	
      7069.50000	     7.76927e-18	
      7071.40000	     7.67292e-18	
      7073.30000	     8.10259e-18	
      7075.20000	     9.33745e-18	
      7077.10000	     8.58541e-18	
      7079.00000	     7.85455e-18	
      7080.90000	     9.40820e-18	
      7082.80000	     9.69088e-18	
      7084.70000	     8.44172e-18	
      7086.60000	     7.08600e-18	
      7088.50000	     5.06342e-18	
      7090.40000	     4.38443e-18	
      7092.30000	     4.11931e-18	
      7094.20000	     4.30531e-18	
      7096.10000	     4.51216e-18	
      7098.00000	     5.14410e-18	
      7099.90000	     4.78132e-18	
      7101.80000	     5.11339e-18	
      7103.70000	     4.57193e-18	
      7105.60000	     5.56760e-18	
      7107.50000	     6.53055e-18	
      7109.40000	     6.64631e-18	
      7111.30000	     7.51463e-18	
      7113.20000	     7.02686e-18	
      7115.10000	     6.83679e-18	
      7117.00000	     6.97831e-18	
      7118.90000	     7.46547e-18	
      7120.80000	     8.23747e-18	
      7122.70000	     7.03795e-18	
      7124.60000	     5.60931e-18	
      7126.50000	     4.75594e-18	
      7128.40000	     4.48322e-18	
      7130.30000	     4.71092e-18	
      7132.20000	     4.02120e-18	
      7134.10000	     4.40059e-18	
      7136.00000	     3.75633e-18	
      7137.90000	     3.90298e-18	
      7139.80000	     4.21222e-18	
      7141.70000	     4.48001e-18	
      7143.60000	     4.59849e-18	
      7145.50000	     5.22129e-18	
      7147.40000	     5.36592e-18	
      7149.30000	     5.57723e-18	
      7151.20000	     6.81477e-18	
      7153.10000	     6.30118e-18	
      7155.00000	     5.79477e-18	
      7156.90000	     5.44830e-18	
      7158.80000	     5.97214e-18	
      7160.70000	     5.55128e-18	
      7162.60000	     5.22665e-18	
      7164.50000	     4.34134e-18	
      7166.40000	     4.49193e-18	
      7168.30000	     4.61843e-18	
      7170.20000	     5.97420e-18	
      7172.10000	     6.04183e-18	
      7174.00000	     6.18327e-18	
      7175.90000	     6.55549e-18	
      7177.80000	     6.56737e-18	
      7179.70000	     6.23581e-18	
      7181.60000	     5.44025e-18	
      7183.50000	     6.10905e-18	
      7185.40000	     7.31523e-18	
      7187.30000	     7.76679e-18	
      7189.20000	     7.48376e-18	
      7191.10000	     7.93874e-18	
      7193.00000	     7.16823e-18	
      7194.90000	     6.15360e-18	
      7196.80000	     6.57884e-18	
      7198.70000	     6.84264e-18	
      7200.60000	     6.17446e-18	
      7202.50000	     6.23484e-18	
      7204.40000	     7.01086e-18	
      7206.30000	     6.92704e-18	
      7208.20000	     7.03596e-18	
      7210.10000	     7.42791e-18	
      7212.00000	     9.00053e-18	
      7213.90000	     7.36462e-18	
      7215.80000	     8.07602e-18	
      7217.70000	     8.12402e-18	
      7219.60000	     8.01696e-18	
      7221.50000	     8.03947e-18	
      7223.40000	     9.60132e-18	
      7225.30000	     8.70831e-18	
      7227.20000	     9.33843e-18	
      7229.10000	     9.02950e-18	
      7231.00000	     9.58204e-18	
      7232.90000	     8.91656e-18	
      7234.80000	     9.27762e-18	
      7236.70000	     9.41699e-18	
      7238.60000	     1.00200e-17	
      7240.50000	     8.23260e-18	
      7242.40000	     8.52880e-18	
      7244.30000	     1.03830e-17	
      7246.20000	     1.34859e-17	
      7248.10000	     1.26743e-17	
      7250.00000	     1.50146e-17	
      7251.90000	     1.47589e-17	
      7253.80000	     1.35017e-17	
      7255.70000	     1.47007e-17	
      7257.60000	     1.54844e-17	
      7259.50000	     1.37053e-17	
      7261.40000	     1.38343e-17	
      7263.30000	     1.47573e-17	
      7265.20000	     1.58570e-17	
      7267.10000	     1.65004e-17	
      7269.00000	     1.61415e-17	
      7270.90000	     1.50716e-17	
      7272.80000	     1.38699e-17	
      7274.70000	     1.46942e-17	
      7276.60000	     1.45460e-17	
      7278.50000	     1.25758e-17	
      7280.40000	     1.48421e-17	
      7282.30000	     1.73137e-17	
      7284.20000	     1.78089e-17	
      7286.10000	     1.75395e-17	
      7288.00000	     1.60182e-17	
      7289.90000	     1.69820e-17	
      7291.80000	     1.77944e-17	
      7293.70000	     2.03142e-17	
      7295.60000	     2.02879e-17	
      7297.50000	     2.24990e-17	
      7299.40000	     2.36007e-17	
      7301.30000	     2.34396e-17	
      7303.20000	     2.32992e-17	
      7305.10000	     2.33778e-17	
      7307.00000	     2.37811e-17	
      7308.90000	     2.45028e-17	
      7310.80000	     2.43324e-17	
      7312.70000	     2.39606e-17	
      7314.60000	     2.50172e-17	
      7316.50000	     2.47971e-17	
      7318.40000	     2.77205e-17	
      7320.30000	     2.76754e-17	
      7322.20000	     2.69526e-17	
      7324.10000	     2.66061e-17	
      7326.00000	     2.76537e-17	
      7327.90000	     2.97262e-17	
      7329.80000	     2.92879e-17	
      7331.70000	     2.89590e-17	
      7333.60000	     2.99430e-17	
      7335.50000	     2.96417e-17	
      7337.40000	     3.14037e-17	
      7339.30000	     3.20532e-17	
      7341.20000	     2.97395e-17	
      7343.10000	     2.94431e-17	
      7345.00000	     2.93853e-17	
      7346.90000	     3.05766e-17	
      7348.80000	     3.09243e-17	
      7350.70000	     3.05558e-17	
      7352.60000	     3.21158e-17	
      7354.50000	     3.12009e-17	
      7356.40000	     3.01234e-17	
      7358.30000	     3.07876e-17	
      7360.20000	     3.29416e-17	
      7362.10000	     3.38496e-17	
      7364.00000	     3.59775e-17	
      7365.90000	     3.57877e-17	
      7367.80000	     3.62908e-17	
      7369.70000	     3.61761e-17	
      7371.60000	     3.49872e-17	
      7373.50000	     3.49345e-17	
      7375.40000	     3.41303e-17	
      7377.30000	     3.31406e-17	
      7379.20000	     3.39214e-17	
      7381.10000	     3.39303e-17	
      7383.00000	     3.40466e-17	
      7384.90000	     3.55923e-17	
      7386.80000	     3.74019e-17	
      7388.70000	     3.79557e-17	
      7390.60000	     3.71867e-17	
      7392.50000	     3.62498e-17	
      7394.40000	     3.64925e-17	
      7396.30000	     3.60453e-17	
      7398.20000	     3.60353e-17	
      7400.10000	     3.63362e-17	
      7402.00000	     3.44203e-17	
      7403.90000	     3.38282e-17	
      7405.80000	     3.36439e-17	
      7407.70000	     3.42046e-17	
      7409.60000	     3.47581e-17	
      7411.50000	     3.60252e-17	
      7413.40000	     3.65464e-17	
      7415.30000	     3.52820e-17	
      7417.20000	     3.33121e-17	
      7419.10000	     3.28611e-17	
      7421.00000	     3.33422e-17	
      7422.90000	     3.49741e-17	
      7424.80000	     3.41962e-17	
      7426.70000	     3.55130e-17	
      7428.60000	     3.47763e-17	
      7430.50000	     3.55103e-17	
      7432.40000	     3.49618e-17	
      7434.30000	     3.41655e-17	
      7436.20000	     3.31531e-17	
      7438.10000	     3.25563e-17	
      7440.00000	     3.61932e-17	
      7441.90000	     3.37937e-17	
      7443.80000	     3.29029e-17	
      7445.70000	     3.28420e-17	
      7447.60000	     3.38663e-17	
      7449.50000	     3.53807e-17	
      7451.40000	     3.53348e-17	
      7453.30000	     3.46318e-17	
      7455.20000	     3.33018e-17	
      7457.10000	     3.24478e-17	
      7459.00000	     3.36708e-17	
      7460.90000	     3.48107e-17	
      7462.80000	     3.49739e-17	
      7464.70000	     3.57995e-17	
      7466.60000	     3.54877e-17	
      7468.50000	     3.49286e-17	
      7470.40000	     3.46155e-17	
      7472.30000	     3.42580e-17	
      7474.20000	     3.48899e-17	
      7476.10000	     3.51999e-17	
      7478.00000	     3.56179e-17	
      7479.90000	     3.61862e-17	
      7481.80000	     3.67907e-17	
      7483.70000	     3.78467e-17	
      7485.60000	     3.74345e-17	
      7487.50000	     3.81156e-17	
      7489.40000	     3.83762e-17	
      7491.30000	     3.67732e-17	
      7493.20000	     3.67165e-17	
      7495.10000	     3.64113e-17	
      7497.00000	     3.75616e-17	
      7498.90000	     3.96393e-17	
      7500.80000	     3.98132e-17	
      7502.70000	     3.82519e-17	
      7504.60000	     3.69933e-17	
      7506.50000	     3.89793e-17	
      7508.40000	     4.10321e-17	
      7510.30000	     3.94430e-17	
      7512.20000	     3.97843e-17	
      7514.10000	     3.90702e-17	
      7516.00000	     3.91949e-17	
      7517.90000	     4.01925e-17	
      7519.80000	     3.87012e-17	
      7521.70000	     3.90963e-17	
      7523.60000	     3.96972e-17	
      7525.50000	     3.91709e-17	
      7527.40000	     3.92059e-17	
      7529.30000	     4.02572e-17	
      7531.20000	     4.13001e-17	
      7533.10000	     4.24644e-17	
      7535.00000	     4.38454e-17	
      7536.90000	     4.36275e-17	
      7538.80000	     4.49903e-17	
      7540.70000	     4.53531e-17	
      7542.60000	     4.42760e-17	
      7544.50000	     4.47722e-17	
      7546.40000	     4.51579e-17	
      7548.30000	     4.54977e-17	
      7550.20000	     4.29879e-17	
      7552.10000	     4.37532e-17	
      7554.00000	     4.53984e-17	
      7555.90000	     4.55450e-17	
      7557.80000	     4.72092e-17	
      7559.70000	     4.82614e-17	
      7561.60000	     4.68572e-17	
      7563.50000	     4.40246e-17	
      7565.40000	     4.41564e-17	
      7567.30000	     4.43579e-17	
      7569.20000	     4.56653e-17	
      7571.10000	     4.83213e-17	
      7573.00000	     4.84020e-17	
      7574.90000	     4.63875e-17	
      7576.80000	     4.81626e-17	
      7578.70000	     4.84273e-17	
      7580.60000	     4.97561e-17	
      7582.50000	     4.95645e-17	
      7584.40000	     4.40735e-17	
      7586.30000	     3.83798e-17	
      7588.20000	     3.14133e-17	
      7590.10000	     2.58610e-17	
      7592.00000	     2.31565e-17	
      7593.90000	     1.89900e-17	
      7595.80000	     1.45462e-17	
      7597.70000	     1.04202e-17	
      7599.60000	     9.00823e-18	
      7601.50000	     7.10853e-18	
      7603.40000	     5.68334e-18	
      7605.30000	     5.53145e-18	
      7607.20000	     6.93452e-18	
      7609.10000	     7.64353e-18	
      7611.00000	     1.00071e-17	
      7612.90000	     1.34008e-17	
      7614.80000	     1.77207e-17	
      7616.70000	     2.35622e-17	
      7618.60000	     2.51644e-17	
      7620.50000	     2.42082e-17	
      7622.40000	     2.02853e-17	
      7624.30000	     1.73357e-17	
      7626.20000	     1.33776e-17	
      7628.10000	     1.06071e-17	
      7630.00000	     8.72682e-18	
      7631.90000	     9.05294e-18	
      7633.80000	     1.04100e-17	
      7635.70000	     1.01954e-17	
      7637.60000	     1.03389e-17	
      7639.50000	     1.14967e-17	
      7641.40000	     1.16365e-17	
      7643.30000	     1.06790e-17	
      7645.20000	     1.14308e-17	
      7647.10000	     1.31552e-17	
      7649.00000	     1.29675e-17	
      7650.90000	     1.07672e-17	
      7652.80000	     1.00709e-17	
      7654.70000	     1.00926e-17	
      7656.60000	     9.41511e-18	
      7658.50000	     7.33626e-18	
      7660.40000	     7.05585e-18	
      7662.30000	     4.89239e-18	
      7664.20000	     4.18302e-18	
      7666.10000	     6.23676e-18	
      7668.00000	     6.10347e-18	
      7669.90000	     5.15860e-18	
      7671.80000	     8.01567e-18	
      7673.70000	     8.53126e-18	
      7675.60000	     9.98496e-18	
      7677.50000	     1.15012e-17	
      7679.40000	     1.21466e-17	
      7681.30000	     1.17087e-17	
      7683.20000	     1.19427e-17	
      7685.10000	     1.09025e-17	
      7687.00000	     1.34080e-17	
      7688.90000	     1.24924e-17	
      7690.80000	     1.14109e-17	
      7692.70000	     1.07163e-17	
      7694.60000	     8.46805e-18	
      7696.50000	     7.75122e-18	
      7698.40000	     8.83541e-18	
      7700.30000	     9.75060e-18	
      7702.20000	     9.02865e-18	
      7704.10000	     1.07398e-17	
      7706.00000	     1.11792e-17	
      7707.90000	     1.20889e-17	
      7709.80000	     1.34474e-17	
      7711.70000	     1.37745e-17	
      7713.60000	     1.17920e-17	
      7715.50000	     1.33559e-17	
      7717.40000	     1.61009e-17	
      7719.30000	     1.93261e-17	
      7721.20000	     1.89024e-17	
      7723.10000	     2.04658e-17	
      7725.00000	     2.15574e-17	
      7726.90000	     2.13899e-17	
      7728.80000	     2.11239e-17	
      7730.70000	     2.21565e-17	
      7732.60000	     2.24255e-17	
      7734.50000	     2.26901e-17	
      7736.40000	     2.47100e-17	
      7738.30000	     2.59783e-17	
      7740.20000	     2.40962e-17	
      7742.10000	     2.22848e-17	
      7744.00000	     2.07954e-17	
      7745.90000	     1.88635e-17	
      7747.80000	     1.69015e-17	
      7749.70000	     1.48426e-17	
      7751.60000	     1.37296e-17	
      7753.50000	     1.30747e-17	
      7755.40000	     1.62088e-17	
      7757.30000	     1.76264e-17	
      7759.20000	     1.74370e-17	
      7761.10000	     1.99768e-17	
      7763.00000	     2.04204e-17	
      7764.90000	     2.02366e-17	
      7766.80000	     2.13060e-17	
      7768.70000	     2.35131e-17	
      7770.60000	     2.41110e-17	
      7772.50000	     2.36562e-17	
      7774.40000	     2.49162e-17	
      7776.30000	     2.32188e-17	
      7778.20000	     2.35341e-17	
      7780.10000	     2.32905e-17	
      7782.00000	     2.10096e-17	
      7783.90000	     2.15294e-17	
      7785.80000	     2.13012e-17	
      7787.70000	     2.22599e-17	
      7789.60000	     2.13640e-17	
      7791.50000	     2.11421e-17	
      7793.40000	     2.14624e-17	
      7795.30000	     2.13432e-17	
      7797.20000	     1.83852e-17	
      7799.10000	     1.96140e-17	
      7801.00000	     2.24353e-17	
      7802.90000	     2.56430e-17	
      7804.80000	     2.78929e-17	
      7806.70000	     2.78921e-17	
      7808.60000	     2.53920e-17	
      7810.50000	     2.74059e-17	
      7812.40000	     2.93497e-17	
      7814.30000	     2.83462e-17	
      7816.20000	     2.86813e-17	
      7818.10000	     2.61810e-17	
      7820.00000	     2.66457e-17	
      7821.90000	     3.02482e-17	
      7823.80000	     2.59836e-17	
      7825.70000	     2.31314e-17	
      7827.60000	     2.42754e-17	
      7829.50000	     2.36573e-17	
      7831.40000	     2.33125e-17	
      7833.30000	     2.45439e-17	
      7835.20000	     2.52460e-17	
      7837.10000	     2.66478e-17	
      7839.00000	     2.64116e-17	
      7840.90000	     2.72257e-17	
      7842.80000	     2.96825e-17	
      7844.70000	     2.96366e-17	
      7846.60000	     2.93928e-17	
      7848.50000	     2.96929e-17	
      7850.40000	     2.98989e-17	
      7852.30000	     3.12415e-17	
      7854.20000	     3.10734e-17	
      7856.10000	     3.02568e-17	
      7858.00000	     2.95551e-17	
      7859.90000	     2.80593e-17	
      7861.80000	     2.92047e-17	
      7863.70000	     2.92644e-17	
      7865.60000	     2.73558e-17	
      7867.50000	     2.89860e-17	
      7869.40000	     2.75180e-17	
      7871.30000	     2.94379e-17	
      7873.20000	     3.10901e-17	
      7875.10000	     3.05905e-17	
      7877.00000	     3.03056e-17	
      7878.90000	     3.21368e-17	
      7880.80000	     3.15232e-17	
      7882.70000	     3.24917e-17	
      7884.60000	     3.58702e-17	
      7886.50000	     3.41229e-17	
      7888.40000	     3.24035e-17	
      7890.30000	     3.43800e-17	
      7892.20000	     3.24131e-17	
      7894.10000	     3.36071e-17	
      7896.00000	     3.16017e-17	
      7897.90000	     3.00600e-17	
      7899.80000	     3.04513e-17	
      7901.70000	     3.11404e-17	
      7903.60000	     3.15521e-17	
      7905.50000	     2.94340e-17	
      7907.40000	     2.80381e-17	
      7909.30000	     2.68001e-17	
      7911.20000	     2.46034e-17	
      7913.10000	     2.43063e-17	
      7915.00000	     2.14550e-17	
      7916.90000	     2.32688e-17	
      7918.80000	     2.69664e-17	
      7920.70000	     2.46482e-17	
      7922.60000	     2.52135e-17	
      7924.50000	     2.76328e-17	
      7926.40000	     2.84586e-17	
      7928.30000	     3.02085e-17	
      7930.20000	     3.18381e-17	
      7932.10000	     3.39738e-17	
      7934.00000	     3.56206e-17	
      7935.90000	     3.28347e-17	
      7937.80000	     2.99500e-17	
      7939.70000	     2.87255e-17	
      7941.60000	     2.69957e-17	
      7943.50000	     2.62872e-17	
      7945.40000	     2.71582e-17	
      7947.30000	     2.62790e-17	
      7949.20000	     3.00555e-17	
      7951.10000	     3.42630e-17	
      7953.00000	     3.59367e-17	
      7954.90000	     3.38275e-17	
      7956.80000	     3.29324e-17	
      7958.70000	     3.31325e-17	
      7960.60000	     3.12438e-17	
      7962.50000	     3.25423e-17	
      7964.40000	     3.80952e-17	
      7966.30000	     3.96758e-17	
      7968.20000	     3.91388e-17	
      7970.10000	     3.94648e-17	
      7972.00000	     3.70320e-17	
      7973.90000	     3.63916e-17	
      7975.80000	     3.29583e-17	
      7977.70000	     3.09118e-17	
      7979.60000	     3.30662e-17	
      7981.50000	     3.03243e-17	
      7983.40000	     3.03551e-17	
      7985.30000	     3.18599e-17	
      7987.20000	     3.32331e-17	
      7989.10000	     3.26361e-17	
      7991.00000	     3.33139e-17	
      7992.90000	     3.41801e-17	
      7994.80000	     3.71946e-17	
      7996.70000	     3.60348e-17	
      7998.60000	     3.62135e-17	
      8000.50000	     3.64525e-17	
      8002.40000	     3.61071e-17	
      8004.30000	     3.68514e-17	
      8006.20000	     3.91741e-17	
      8008.10000	     4.04761e-17	
      8010.00000	     4.12699e-17	
      8011.90000	     4.44637e-17	
      8013.80000	     4.50284e-17	
      8015.70000	     4.42524e-17	
      8017.60000	     4.28412e-17	
      8019.50000	     4.27936e-17	
      8021.40000	     4.57270e-17	
      8023.30000	     4.38552e-17	
      8025.20000	     4.72974e-17	
      8027.10000	     4.71076e-17	
      8029.00000	     4.77481e-17	
      8030.90000	     4.83418e-17	
      8032.80000	     4.73843e-17	
      8034.70000	     4.95207e-17	
      8036.60000	     4.76320e-17	
      8038.50000	     4.76711e-17	
      8040.40000	     5.19136e-17	
      8042.30000	     5.18540e-17	
      8044.20000	     5.02235e-17	
      8046.10000	     5.19329e-17	
      8048.00000	     5.29178e-17	
      8049.90000	     5.52102e-17	
      8051.80000	     5.74571e-17	
      8053.70000	     5.79496e-17	
      8055.60000	     5.91448e-17	
      8057.50000	     5.97908e-17	
      8059.40000	     5.67236e-17	
      8061.30000	     5.88806e-17	
      8063.20000	     6.10855e-17	
      8065.10000	     5.98603e-17	
      8067.00000	     5.95671e-17	
      8068.90000	     6.25252e-17	
      8070.80000	     6.46454e-17	
      8072.70000	     6.49101e-17	
      8074.60000	     6.40390e-17	
      8076.50000	     6.45519e-17	
      8078.40000	     6.63969e-17	
      8080.30000	     6.68853e-17	
      8082.20000	     6.69251e-17	
      8084.10000	     6.70069e-17	
      8086.00000	     6.71582e-17	
      8087.90000	     6.83424e-17	
      8089.80000	     6.82488e-17	
      8091.70000	     6.77782e-17	
      8093.60000	     6.72277e-17	
      8095.50000	     6.90717e-17	
      8097.40000	     6.98431e-17	
      8099.30000	     6.73245e-17	
      8101.20000	     6.88391e-17	
      8103.10000	     7.42990e-17	
      8105.00000	     7.44803e-17	
      8106.90000	     7.57663e-17	
      8108.80000	     7.76615e-17	
      8110.70000	     7.48977e-17	
      8112.60000	     7.45122e-17	
      8114.50000	     7.55032e-17	
      8116.40000	     7.67737e-17	
      8118.30000	     7.73336e-17	
      8120.20000	     7.85887e-17	
      8122.10000	     8.18009e-17	
      8124.00000	     8.21995e-17	
      8125.90000	     8.24300e-17	
      8127.80000	     8.16261e-17	
      8129.70000	     8.37078e-17	
      8131.60000	     8.24261e-17	
      8133.50000	     8.28903e-17	
      8135.40000	     8.80170e-17	
      8137.30000	     8.76223e-17	
      8139.20000	     8.25298e-17	
      8141.10000	     8.05185e-17	
      8143.00000	     8.23919e-17	
      8144.90000	     7.99779e-17	
      8146.80000	     8.04231e-17	
      8148.70000	     8.24073e-17	
      8150.60000	     8.05946e-17	
      8152.50000	     8.10513e-17	
      8154.40000	     8.25913e-17	
      8156.30000	     8.33318e-17	
      8158.20000	     7.81752e-17	
      8160.10000	     7.90485e-17	
      8162.00000	     7.96593e-17	
      8163.90000	     8.18000e-17	
      8165.80000	     8.28285e-17	
      8167.70000	     8.37555e-17	
      8169.60000	     8.55005e-17	
      8171.50000	     8.60767e-17	
      8173.40000	     8.06055e-17	
      8175.30000	     7.45385e-17	
      8177.20000	     6.55548e-17	
      8179.10000	     5.40081e-17	
      8181.00000	     5.01668e-17	
      8182.90000	     5.53784e-17	
      8184.80000	     6.10563e-17	
      8186.70000	     6.39125e-17	
      8188.60000	     5.94604e-17	
      8190.50000	     5.06954e-17	
      8192.40000	     4.66955e-17	
      8194.30000	     4.65082e-17	
      8196.20000	     5.14047e-17	
      8198.10000	     5.87110e-17	
      8200.00000	     6.53098e-17	
      8201.90000	     6.96115e-17	
      8203.80000	     7.00779e-17	
      8205.70000	     6.87890e-17	
      8207.60000	     7.14325e-17	
      8209.50000	     7.37326e-17	
      8211.40000	     7.44971e-17	
      8213.30000	     7.42268e-17	
      8215.20000	     7.28730e-17	
      8217.10000	     7.47502e-17	
      8219.00000	     7.95896e-17	
      8220.90000	     7.99041e-17	
      8222.80000	     7.87824e-17	
      8224.70000	     7.65414e-17	
      8226.60000	     7.42253e-17	
      8228.50000	     7.47300e-17	
      8230.40000	     7.46693e-17	
      8232.30000	     7.83713e-17	
      8234.20000	     8.34336e-17	
      8236.10000	     8.44870e-17	
      8238.00000	     8.54511e-17	
      8239.90000	     8.54892e-17	
      8241.80000	     8.33037e-17	
      8243.70000	     8.59885e-17	
      8245.60000	     8.66301e-17	
      8247.50000	     8.46123e-17	
      8249.40000	     8.28740e-17	
      8251.30000	     8.07611e-17	
      8253.20000	     7.94612e-17	
      8255.10000	     7.90587e-17	
      8257.00000	     8.23755e-17	
      8258.90000	     8.38802e-17	
      8260.80000	     8.59416e-17	
      8262.70000	     8.70772e-17	
      8264.60000	     8.47101e-17	
      8266.50000	     8.30635e-17	
      8268.40000	     7.94799e-17	
      8270.30000	     7.72250e-17	
      8272.20000	     7.73216e-17	
      8274.10000	     7.54486e-17	
      8276.00000	     7.54617e-17	
      8277.90000	     7.31966e-17	
      8279.80000	     7.30631e-17	
      8281.70000	     7.36903e-17	
      8283.60000	     6.88640e-17	
      8285.50000	     6.66189e-17	
      8287.40000	     6.61035e-17	
      8289.30000	     6.54514e-17	
      8291.20000	     6.60836e-17	
      8293.10000	     6.78759e-17	
      8295.00000	     7.02432e-17	
      8296.90000	     6.47964e-17	
      8298.80000	     6.40290e-17	
      8300.70000	     6.38080e-17	
      8302.60000	     6.32889e-17	
      8304.50000	     6.58352e-17	
      8306.40000	     6.88653e-17	
      8308.30000	     6.99587e-17	
      8310.20000	     6.86659e-17	
      8312.10000	     7.05396e-17	
      8314.00000	     7.11984e-17	
      8315.90000	     7.29224e-17	
      8317.80000	     7.37170e-17	
      8319.70000	     7.44170e-17	
      8321.60000	     7.24425e-17	
      8323.50000	     7.19397e-17	
      8325.40000	     7.36278e-17	
      8327.30000	     7.48747e-17	
      8329.20000	     7.42569e-17	
      8331.10000	     7.13940e-17	
      8333.00000	     6.99393e-17	
      8334.90000	     7.12780e-17	
      8336.80000	     7.47737e-17	
      8338.70000	     7.38393e-17	
      8340.60000	     7.20975e-17	
      8342.50000	     7.31588e-17	
      8344.40000	     6.78202e-17	
      8346.30000	     6.05531e-17	
      8348.20000	     6.62844e-17	
      8350.10000	     6.90116e-17	
      8352.00000	     6.75566e-17	
      8353.90000	     6.77778e-17	
      8355.80000	     7.01266e-17	
      8357.70000	     7.46208e-17	
      8359.60000	     7.48631e-17	
      8361.50000	     7.38795e-17	
      8363.40000	     7.49633e-17	
      8365.30000	     7.93650e-17	
      8367.20000	     8.13031e-17	
      8369.10000	     7.55026e-17	
      8371.00000	     7.28759e-17	
      8372.90000	     7.23030e-17	
      8374.80000	     7.32664e-17	
      8376.70000	     7.47681e-17	
      8378.60000	     7.45511e-17	
      8380.50000	     7.22831e-17	
      8382.40000	     7.12172e-17	
      8384.30000	     6.86974e-17	
      8386.20000	     6.71694e-17	
      8388.10000	     6.69016e-17	
      8390.00000	     6.85106e-17	
      8391.90000	     6.94499e-17	
      8393.80000	     6.99848e-17	
      8395.70000	     7.67107e-17	
      8397.60000	     8.11696e-17	
      8399.50000	     8.22405e-17	
      8401.40000	     7.98226e-17	
      8403.30000	     7.71015e-17	
      8405.20000	     7.59615e-17	
      8407.10000	     7.62173e-17	
      8409.00000	     7.77614e-17	
      8410.90000	     8.04722e-17	
      8412.80000	     8.30660e-17	
      8414.70000	     8.07981e-17	
      8416.60000	     7.88585e-17	
      8418.50000	     7.59389e-17	
      8420.40000	     7.61523e-17	
      8422.30000	     7.59915e-17	
      8424.20000	     7.64841e-17	
      8426.10000	     7.85629e-17	
      8428.00000	     7.43070e-17	
      8429.90000	     7.03914e-17	
      8431.80000	     6.52183e-17	
      8433.70000	     5.61861e-17	
      8435.60000	     5.85825e-17	
      8437.50000	     5.84094e-17	
      8439.40000	     5.35710e-17	
      8441.30000	     4.86406e-17	
      8443.20000	     4.63844e-17	
      8445.10000	     4.60117e-17	
      8447.00000	     4.56666e-17	
      8448.90000	     4.13760e-17	
      8450.80000	     4.12914e-17	
      8452.70000	     4.34186e-17	
      8454.60000	     4.08583e-17	
      8456.50000	     4.12414e-17	
      8458.40000	     3.84305e-17	
      8460.30000	     3.90675e-17	
      8462.20000	     3.68384e-17	
      8464.10000	     3.90224e-17	
      8466.00000	     4.14453e-17	
      8467.90000	     4.18288e-17	
      8469.80000	     4.02647e-17	
      8471.70000	     4.17788e-17	
      8473.60000	     4.32885e-17	
      8475.50000	     4.44253e-17	
      8477.40000	     4.44276e-17	
      8479.30000	     4.65979e-17	
      8481.20000	     4.63066e-17	
      8483.10000	     4.67416e-17	
      8485.00000	     4.69763e-17	
      8486.90000	     5.01825e-17	
      8488.80000	     4.98272e-17	
      8490.70000	     4.62994e-17	
      8492.60000	     4.49605e-17	
      8494.50000	     4.38181e-17	
      8496.40000	     4.10882e-17	
      8498.30000	     4.78050e-17	
      8500.20000	     4.83178e-17	
      8502.10000	     4.74353e-17	
      8504.00000	     4.88919e-17	
      8505.90000	     4.49422e-17	
      8507.80000	     4.31630e-17	
      8509.70000	     4.37179e-17	
      8511.60000	     4.23577e-17	
      8513.50000	     4.00003e-17	
      8515.40000	     4.08017e-17	
      8517.30000	     4.16283e-17	
      8519.20000	     4.22867e-17	
      8521.10000	     4.57833e-17	
      8523.00000	     4.71288e-17	
      8524.90000	     4.99894e-17	
      8526.80000	     5.03533e-17	
      8528.70000	     5.07687e-17	
      8530.60000	     5.09413e-17	
      8532.50000	     5.09991e-17	
      8534.40000	     5.18814e-17	
      8536.30000	     5.06425e-17	
      8538.20000	     5.25688e-17	
      8540.10000	     5.37287e-17	
      8542.00000	     5.28771e-17	
      8543.90000	     5.66457e-17	
      8545.80000	     6.23128e-17	
      8547.70000	     6.03453e-17	
      8549.60000	     5.73391e-17	
      8551.50000	     5.73524e-17	
      8553.40000	     5.73406e-17	
      8555.30000	     5.78131e-17	
      8557.20000	     5.52016e-17	
      8559.10000	     5.64657e-17	
      8561.00000	     5.78003e-17	
      8562.90000	     5.80654e-17	
      8564.80000	     5.90848e-17	
      8566.70000	     5.88189e-17	
      8568.60000	     6.01980e-17	
      8570.50000	     6.10620e-17	
      8572.40000	     6.12864e-17	
      8574.30000	     6.11455e-17	
      8576.20000	     5.98330e-17	
      8578.10000	     5.96209e-17	
      8580.00000	     6.02366e-17	
      8581.90000	     6.34232e-17	
      8583.80000	     6.49963e-17	
      8585.70000	     6.50874e-17	
      8587.60000	     6.32799e-17	
      8589.50000	     6.49138e-17	
      8591.40000	     6.26623e-17	
      8593.30000	     6.18636e-17	
      8595.20000	     6.44025e-17	
      8597.10000	     6.67530e-17	
      8599.00000	     6.29531e-17	
      8600.90000	     6.17042e-17	
      8602.80000	     6.41722e-17	
      8604.70000	     6.53049e-17	
      8606.60000	     6.59563e-17	
      8608.50000	     6.45980e-17	
      8610.40000	     6.49241e-17	
      8612.30000	     6.23910e-17	
      8614.20000	     6.06268e-17	
      8616.10000	     6.22598e-17	
      8618.00000	     6.16853e-17	
      8619.90000	     6.45222e-17	
      8621.80000	     6.80462e-17	
      8623.70000	     6.38275e-17	
      8625.60000	     6.18962e-17	
      8627.50000	     6.44147e-17	
      8629.40000	     6.37575e-17	
      8631.30000	     6.09350e-17	
      8633.20000	     6.00111e-17	
      8635.10000	     5.95679e-17	
      8637.00000	     5.78845e-17	
      8638.90000	     6.02418e-17	
      8640.80000	     5.69830e-17	
      8642.70000	     5.65929e-17	
      8644.60000	     6.09638e-17	
      8646.50000	     5.90915e-17	
      8648.40000	     6.20449e-17	
      8650.30000	     6.86064e-17	
      8652.20000	     7.00773e-17	
      8654.10000	     6.73540e-17	
      8656.00000	     6.65957e-17	
      8657.90000	     6.02163e-17	
      8659.80000	     6.25322e-17	
      8661.70000	     6.13034e-17	
      8663.60000	     6.40401e-17	
      8665.50000	     6.20597e-17	
      8667.40000	     5.90162e-17	
      8669.30000	     6.06333e-17	
      8671.20000	     6.44437e-17	
      8673.10000	     7.06163e-17	
      8675.00000	     6.71221e-17	
      8676.90000	     6.67978e-17	
      8678.80000	     6.57673e-17	
      8680.70000	     6.66297e-17	
      8682.60000	     6.72909e-17	
      8684.50000	     6.60841e-17	
      8686.40000	     6.26765e-17	
      8688.30000	     5.81335e-17	
      8690.20000	     5.82899e-17	
      8692.10000	     5.77363e-17	
      8694.00000	     5.81712e-17	
      8695.90000	     5.59177e-17	
      8697.80000	     5.70090e-17	
      8699.70000	     6.04122e-17	
      8701.60000	     6.13504e-17	
      8703.50000	     6.32899e-17	
      8705.40000	     6.06145e-17	
      8707.30000	     5.88490e-17	
      8709.20000	     5.99735e-17	
      8711.10000	     5.89857e-17	
      8713.00000	     5.79763e-17	
      8714.90000	     5.98507e-17	
      8716.80000	     5.87030e-17	
      8718.70000	     6.00487e-17	
      8720.60000	     6.35367e-17	
      8722.50000	     6.63338e-17	
      8724.40000	     6.67297e-17	
      8726.30000	     6.87069e-17	
      8728.20000	     6.88759e-17	
      8730.10000	     6.59372e-17	
      8732.00000	     6.53518e-17	
      8733.90000	     6.55771e-17	
      8735.80000	     6.67527e-17	
      8737.70000	     6.92274e-17	
      8739.60000	     7.37356e-17	
      8741.50000	     7.58996e-17	
      8743.40000	     7.41491e-17	
      8745.30000	     7.21747e-17	
      8747.20000	     7.13206e-17	
      8749.10000	     7.25497e-17	
      8751.00000	     7.62684e-17	
      8752.90000	     7.62435e-17	
      8754.80000	     7.77234e-17	
      8756.70000	     7.61777e-17	
      8758.60000	     7.50179e-17	
      8760.50000	     7.32810e-17	
      8762.40000	     7.27216e-17	
      8764.30000	     7.84830e-17	
      8766.20000	     7.89256e-17	
      8768.10000	     8.69763e-17	
      8770.00000	     9.56618e-17	
      8771.90000	     9.40677e-17	
      8773.80000	     8.87922e-17	
      8775.70000	     8.35396e-17	
      8777.60000	     8.58454e-17	
      8779.50000	     8.46530e-17	
      8781.40000	     8.55296e-17	
      8783.30000	     8.62542e-17	
      8785.20000	     8.53817e-17	
      8787.10000	     8.77062e-17	
      8789.00000	     8.80179e-17	
      8790.90000	     9.12729e-17	
      8792.80000	     9.52933e-17	
      8794.70000	     9.09925e-17	
      8796.60000	     8.55704e-17	
      8798.50000	     8.33702e-17	
      8800.40000	     8.08484e-17	
      8802.30000	     7.97075e-17	
      8804.20000	     8.34453e-17	
      8806.10000	     8.60526e-17	
      8808.00000	     9.08051e-17	
      8809.90000	     9.92387e-17	
      8811.80000	     1.00578e-16	
      8813.70000	     1.01762e-16	
      8815.60000	     1.00143e-16	
      8817.50000	     9.36670e-17	
      8819.40000	     8.64954e-17	
      8821.30000	     8.38511e-17	
      8823.20000	     8.13630e-17	
      8825.10000	     8.35593e-17	
      8827.00000	     8.59568e-17	
      8828.90000	     8.91278e-17	
      8830.80000	     9.09925e-17	
      8832.70000	     9.29888e-17	
      8834.60000	     9.73615e-17	
      8836.50000	     1.01845e-16	
      8838.40000	     9.83527e-17	
      8840.30000	     9.47008e-17	
      8842.20000	     9.06455e-17	
      8844.10000	     8.63925e-17	
      8846.00000	     8.75356e-17	
      8847.90000	     9.52041e-17	
      8849.80000	     1.00438e-16	
      8851.70000	     9.96140e-17	
      8853.60000	     9.63430e-17	
      8855.50000	     8.46872e-17	
      8857.40000	     7.37458e-17	
      8859.30000	     7.16217e-17	
      8861.20000	     7.60184e-17	
      8863.10000	     7.53771e-17	
      8865.00000	     7.53333e-17	
      8866.90000	     6.05514e-17	
      8868.80000	     5.71986e-17	
      8870.70000	     5.92039e-17	
      8872.60000	     6.54922e-17	
      8874.50000	     7.22571e-17	
      8876.40000	     7.56158e-17	
      8878.30000	     7.62324e-17	
      8880.20000	     7.10577e-17	
      8882.10000	     6.66611e-17	
      8884.00000	     7.13946e-17	
      8885.90000	     7.36975e-17	
      8887.80000	     7.34125e-17	
      8889.70000	     7.76790e-17	
      8891.60000	     7.40979e-17	
      8893.50000	     7.06802e-17	
      8895.40000	     7.44453e-17	
      8897.30000	     7.95842e-17	
      8899.20000	     8.22698e-17	
      8901.10000	     8.37842e-17	
      8903.00000	     8.55178e-17	
      8904.90000	     8.01969e-17	
      8906.80000	     8.22926e-17	
      8908.70000	     8.21163e-17	
      8910.60000	     8.24932e-17	
      8912.50000	     8.23623e-17	
      8914.40000	     8.86015e-17	
      8916.30000	     9.13751e-17	
      8918.20000	     8.67183e-17	
      8920.10000	     8.41403e-17	
      8922.00000	     7.52991e-17	
      8923.90000	     8.17639e-17	
      8925.80000	     8.75328e-17	
      8927.70000	     9.11276e-17	
      8929.60000	     9.77689e-17	
      8931.50000	     9.73939e-17	
      8933.40000	     9.12645e-17	
      8935.30000	     8.48090e-17	
      8937.20000	     7.84789e-17	
      8939.10000	     7.60810e-17	
      8941.00000	     7.94292e-17	
      8942.90000	     7.91590e-17	
      8944.80000	     8.01287e-17	
      8946.70000	     7.92721e-17	
      8948.60000	     7.92145e-17	
      8950.50000	     8.08944e-17	
      8952.40000	     8.69029e-17	
      8954.30000	     8.90010e-17	
      8956.20000	     8.97085e-17	
      8958.10000	     9.07563e-17	
      8960.00000	     8.60257e-17	
      8961.90000	     8.07789e-17	
      8963.80000	     7.94666e-17	
      8965.70000	     8.16309e-17	
      8967.60000	     8.50984e-17	
      8969.50000	     8.78210e-17	
      8971.40000	     8.98274e-17	
      8973.30000	     8.97505e-17	
      8975.20000	     8.92471e-17	
      8977.10000	     8.63470e-17	
      8979.00000	     8.90120e-17	
      8980.90000	     9.31791e-17	
      8982.80000	     9.30191e-17	
      8984.70000	     8.83070e-17	
      8986.60000	     8.37218e-17	
      8988.50000	     8.16945e-17	
      8990.40000	     8.45629e-17	
      8992.30000	     9.13003e-17	
      8994.20000	     9.27170e-17	
      8996.10000	     8.94952e-17	
      8998.00000	     9.26353e-17	
      8999.90000	     9.43347e-17	
      9001.80000	     9.80737e-17	
      9003.70000	     9.92602e-17	
      9005.60000	     9.75179e-17	
      9007.50000	     9.75417e-17	
      9009.40000	     9.78491e-17	
      9011.30000	     9.69713e-17	
      9013.20000	     9.07044e-17	
      9015.10000	     8.81977e-17	
      9017.00000	     8.68620e-17	
      9018.90000	     8.57732e-17	
      9020.80000	     8.33678e-17	
      9022.70000	     8.16080e-17	
      9024.60000	     8.58233e-17	
      9026.50000	     8.97247e-17	
      9028.40000	     9.14544e-17	
      9030.30000	     9.61479e-17	
      9032.20000	     1.02092e-16	
      9034.10000	     1.07095e-16	
      9036.00000	     1.06312e-16	
      9037.90000	     1.04979e-16	
      9039.80000	     1.00324e-16	
      9041.70000	     9.96368e-17	
      9043.60000	     1.05075e-16	
      9045.50000	     1.09154e-16	
      9047.40000	     1.03621e-16	
      9049.30000	     9.91325e-17	
      9051.20000	     9.58460e-17	
      9053.10000	     9.61337e-17	
      9055.00000	     9.95301e-17	
      9056.90000	     9.73882e-17	
      9058.80000	     9.19071e-17	
      9060.70000	     9.06299e-17	
      9062.60000	     9.36316e-17	
      9064.50000	     9.16425e-17	
      9066.40000	     8.95071e-17	
      9068.30000	     9.04194e-17	
      9070.20000	     8.99365e-17	
      9072.10000	     9.55423e-17	
      9074.00000	     1.01668e-16	
      9075.90000	     1.01094e-16	
      9077.80000	     9.98492e-17	
      9079.70000	     9.92064e-17	
      9081.60000	     9.80415e-17	
      9083.50000	     9.87304e-17	
      9085.40000	     9.78787e-17	
      9087.30000	     1.00300e-16	
      9089.20000	     1.00154e-16	
      9091.10000	     1.04836e-16	
      9093.00000	     1.05094e-16	
      9094.90000	     1.07721e-16	
      9096.80000	     1.06172e-16	
      9098.70000	     1.04000e-16	
      9100.60000	     9.97676e-17	
      9102.50000	     9.86906e-17	
      9104.40000	     9.96480e-17	
      9106.30000	     1.07804e-16	
      9108.20000	     1.08440e-16	
      9110.10000	     1.11218e-16	
      9112.00000	     1.07576e-16	
      9113.90000	     1.02576e-16	
      9115.80000	     1.04660e-16	
      9117.70000	     1.02722e-16	
      9119.60000	     1.08671e-16	
      9121.50000	     1.10972e-16	
      9123.40000	     1.08867e-16	
      9125.30000	     1.08916e-16	
      9127.20000	     1.06274e-16	
      9129.10000	     1.05624e-16	
      9131.00000	     1.09223e-16	
      9132.90000	     1.04684e-16	
      9134.80000	     1.00884e-16	
      9136.70000	     9.94783e-17	
      9138.60000	     1.04430e-16	
      9140.50000	     1.11768e-16	
      9142.40000	     1.14908e-16	
      9144.30000	     1.11546e-16	
      9146.20000	     1.12602e-16	
      9148.10000	     1.10350e-16	
      9150.00000	     1.07929e-16	
      9151.90000	     1.07580e-16	
      9153.80000	     1.12431e-16	
      9155.70000	     1.12122e-16	
      9157.60000	     1.13298e-16	
      9159.50000	     1.14562e-16	
      9161.40000	     1.15994e-16	
      9163.30000	     1.17959e-16	
      9165.20000	     1.22026e-16	
      9167.10000	     1.20231e-16	
      9169.00000	     1.16496e-16	
      9170.90000	     1.10871e-16	
      9172.80000	     1.06342e-16	
      9174.70000	     1.08073e-16	
      9176.60000	     1.14821e-16	
      9178.50000	     1.19559e-16	
      9180.40000	     1.15358e-16	
      9182.30000	     1.16639e-16	
      9184.20000	     1.24306e-16	
      9186.10000	     1.29965e-16	
      9188.00000	     1.31602e-16	
      9189.90000	     1.27600e-16	
      9191.80000	     1.20851e-16	
      9193.70000	     1.20891e-16	
      9195.60000	     1.27622e-16	
      9197.50000	     1.29418e-16	
      9199.40000	     1.28194e-16	
      9201.30000	     1.26456e-16	
      9203.20000	     1.20742e-16	
      9205.10000	     1.12508e-16	
      9207.00000	     1.12146e-16	
      9208.90000	     1.13641e-16	
      9210.80000	     1.15261e-16	
      9212.70000	     1.13177e-16	
      9214.60000	     1.12275e-16	
      9216.50000	     1.14050e-16	
      9218.40000	     1.10940e-16	
      9220.30000	     1.12129e-16	
      9222.20000	     1.12530e-16	
      9224.10000	     1.11013e-16	
      9226.00000	     1.08635e-16	
      9227.90000	     1.08642e-16	
      9229.80000	     1.07291e-16	
      9231.70000	     1.03968e-16	
      9233.60000	     1.03612e-16	
      9235.50000	     1.06555e-16	
      9237.40000	     1.12271e-16	
      9239.30000	     1.14644e-16	
      9241.20000	     1.09374e-16	
      9243.10000	     1.07593e-16	
      9245.00000	     1.05397e-16	
      9246.90000	     1.03251e-16	
      9248.80000	     1.01819e-16	
      9250.70000	     1.05770e-16	
      9252.60000	     1.14832e-16	
      9254.50000	     1.16116e-16	
      9256.40000	     1.10440e-16	
      9258.30000	     1.07397e-16	
      9260.20000	     1.13005e-16	
      9262.10000	     1.14918e-16	
      9264.00000	     1.18671e-16	
      9265.90000	     1.20951e-16	
      9267.80000	     1.13803e-16	
      9269.70000	     1.11145e-16	
      9271.60000	     1.09887e-16	
      9273.50000	     1.06000e-16	
      9275.40000	     1.02233e-16	
      9277.30000	     1.03511e-16	
      9279.20000	     1.04892e-16	
      9281.10000	     1.06077e-16	
      9283.00000	     1.07847e-16	
      9284.90000	     1.03490e-16	
      9286.80000	     1.01221e-16	
      9288.70000	     1.02158e-16	
      9290.60000	     1.02878e-16	
      9292.50000	     1.01539e-16	
      9294.40000	     9.82605e-17	
      9296.30000	     9.34924e-17	
      9298.20000	     9.08784e-17	
      9300.10000	     8.93970e-17	
      9302.00000	     1.02806e-16	
      9303.90000	     9.87701e-17	
      9305.80000	     9.56060e-17	
      9307.70000	     1.05264e-16	
      9309.60000	     1.04928e-16	
      9311.50000	     9.97538e-17	
      9313.40000	     9.76792e-17	
      9315.30000	     8.79748e-17	
      9317.20000	     9.15417e-17	
      9319.10000	     9.54554e-17	
      9321.00000	     8.92430e-17	
      9322.90000	     8.47016e-17	
      9324.80000	     8.34327e-17	
      9326.70000	     9.00771e-17	
      9328.60000	     9.04956e-17	
      9330.50000	     8.51547e-17	
      9332.40000	     8.03106e-17	
      9334.30000	     8.01825e-17	
      9336.20000	     7.92741e-17	
      9338.10000	     7.76522e-17	
      9340.00000	     6.85975e-17	
      9341.90000	     6.20270e-17	
      9343.80000	     6.90977e-17	
      9345.70000	     8.28676e-17	
      9347.60000	     9.05371e-17	
      9349.50000	     8.42662e-17	
      9351.40000	     7.30997e-17	
      9353.30000	     7.22217e-17	
      9355.20000	     7.17372e-17	
      9357.10000	     7.99404e-17	
      9359.00000	     9.09321e-17	
      9360.90000	     9.22790e-17	
      9362.80000	     8.64104e-17	
      9364.70000	     8.05073e-17	
      9366.60000	     7.43473e-17	
      9368.50000	     7.38453e-17	
      9370.40000	     8.70696e-17	
      9372.30000	     1.12920e-16	
      9374.20000	     1.17442e-16	
      9376.10000	     1.16785e-16	
      9378.00000	     1.13408e-16	
      9379.90000	     9.53167e-17	
      9381.80000	     9.26241e-17	
      9383.70000	     8.92412e-17	
      9385.60000	     9.18954e-17	
      9387.50000	     1.03378e-16	
      9389.40000	     1.12393e-16	
      9391.30000	     1.06901e-16	
      9393.20000	     1.06345e-16	
      9395.10000	     1.05712e-16	
      9397.00000	     1.02144e-16	
      9398.90000	     9.86763e-17	
      9400.80000	     9.98216e-17	
      9402.70000	     1.06983e-16	
      9404.60000	     1.04227e-16	
      9406.50000	     1.01446e-16	
      9408.40000	     1.02535e-16	
      9410.30000	     9.87422e-17	
      9412.20000	     1.00580e-16	
      9414.10000	     1.03753e-16	
      9416.00000	     1.00439e-16	
      9417.90000	     1.01322e-16	
      9419.80000	     1.09202e-16	
      9421.70000	     1.08589e-16	
      9423.60000	     8.98171e-17	
      9425.50000	     8.04831e-17	
      9427.40000	     8.76938e-17	
      9429.30000	     1.00219e-16	
      9431.20000	     1.09186e-16	
      9433.10000	     1.06619e-16	
      9435.00000	     8.86480e-17	
      9436.90000	     7.50734e-17	
      9438.80000	     7.33618e-17	
      9440.70000	     7.35931e-17	
      9442.60000	     7.69608e-17	
      9444.50000	     9.40798e-17	
      9446.40000	     1.03148e-16	
      9448.30000	     1.05624e-16	
      9450.20000	     9.82038e-17	
      9452.10000	     9.73845e-17	
      9454.00000	     9.79344e-17	
      9455.90000	     9.12954e-17	
      9457.80000	     9.00335e-17	
      9459.70000	     9.78974e-17	
      9461.60000	     1.03677e-16	
      9463.50000	     1.06029e-16	
      9465.40000	     1.06857e-16	
      9467.30000	     1.05641e-16	
      9469.20000	     1.07032e-16	
      9471.10000	     1.10023e-16	
      9473.00000	     1.23178e-16	
      9474.90000	     1.29406e-16	
      9476.80000	     1.17036e-16	
      9478.70000	     1.12674e-16	
      9480.60000	     1.04880e-16	
      9482.50000	     1.07080e-16	
      9484.40000	     1.16819e-16	
      9486.30000	     1.22641e-16	
      9488.20000	     1.24191e-16	
      9490.10000	     1.08713e-16	
      9492.00000	     1.03489e-16	
      9493.90000	     1.02569e-16	
      9495.80000	     9.66166e-17	
      9497.70000	     9.16880e-17	
      9499.60000	     9.32837e-17	
      9501.50000	     1.02726e-16	
      9503.40000	     1.07882e-16	
      9505.30000	     1.17728e-16	
      9507.20000	     1.20734e-16	
      9509.10000	     1.20781e-16	
      9511.00000	     1.13048e-16	
      9512.90000	     1.10165e-16	
      9514.80000	     1.01806e-16	
      9516.70000	     9.53510e-17	
      9518.60000	     9.85245e-17	
      9520.50000	     9.85568e-17	
      9522.40000	     1.05853e-16	
      9524.30000	     1.13099e-16	
      9526.20000	     1.14158e-16	
      9528.10000	     1.15618e-16	
      9530.00000	     1.22680e-16	
      9531.90000	     1.16795e-16	
      9533.80000	     1.13626e-16	
      9535.70000	     1.14870e-16	
      9537.60000	     1.17207e-16	
      9539.50000	     1.10209e-16	
      9541.40000	     1.03325e-16	
      9543.30000	     1.05529e-16	
      9545.20000	     1.11333e-16	
      9547.10000	     1.29203e-16	
      9549.00000	     1.31635e-16	
      9550.90000	     1.19593e-16	
      9552.80000	     1.17006e-16	
      9554.70000	     1.17253e-16	
      9556.60000	     1.21894e-16	
      9558.50000	     1.21489e-16	
      9560.40000	     1.18481e-16	
      9562.30000	     1.14468e-16	
      9564.20000	     1.13984e-16	
      9566.10000	     1.23365e-16	
      9568.00000	     1.19597e-16	
      9569.90000	     1.30293e-16	
      9571.80000	     1.26996e-16	
      9573.70000	     1.26645e-16	
      9575.60000	     1.23193e-16	
      9577.50000	     1.15807e-16	
      9579.40000	     1.16154e-16	
      9581.30000	     1.22003e-16	
      9583.20000	     1.26539e-16	
      9585.10000	     1.13545e-16	
      9587.00000	     1.10980e-16	
      9588.90000	     1.06216e-16	
      9590.80000	     1.05672e-16	
      9592.70000	     1.12571e-16	
      9594.60000	     1.12590e-16	
      9596.50000	     1.15489e-16	
      9598.40000	     1.19791e-16	
      9600.30000	     1.20376e-16	
      9602.20000	     1.11307e-16	
      9604.10000	     1.14478e-16	
      9606.00000	     1.15942e-16	
      9607.90000	     1.17340e-16	
      9609.80000	     1.22485e-16	
      9611.70000	     1.27804e-16	
      9613.60000	     1.24264e-16	
      9615.50000	     1.19630e-16	
      9617.40000	     1.22119e-16	
      9619.30000	     1.21370e-16	
      9621.20000	     1.21211e-16	
      9623.10000	     1.18171e-16	
      9625.00000	     1.25512e-16	
      9626.90000	     1.26437e-16	
      9628.80000	     1.27441e-16	
      9630.70000	     1.23980e-16	
      9632.60000	     1.10272e-16	
      9634.50000	     1.06011e-16	
      9636.40000	     1.08394e-16	
      9638.30000	     1.13452e-16	
      9640.20000	     1.19090e-16	
      9642.10000	     1.16048e-16	
      9644.00000	     1.18192e-16	
      9645.90000	     1.21699e-16	
      9647.80000	     1.27124e-16	
      9649.70000	     1.26623e-16	
      9651.60000	     1.30431e-16	
      9653.50000	     1.31474e-16	
      9655.40000	     1.35767e-16	
      9657.30000	     1.43438e-16	
      9659.20000	     1.39257e-16	
      9661.10000	     1.38428e-16	
      9663.00000	     1.42964e-16	
      9664.90000	     1.42036e-16	
      9666.80000	     1.41258e-16	
      9668.70000	     1.33664e-16	
      9670.60000	     1.28089e-16	
      9672.50000	     1.37028e-16	
      9674.40000	     1.36901e-16	
      9676.30000	     1.37987e-16	
      9678.20000	     1.45345e-16	
      9680.10000	     1.41626e-16	
      9682.00000	     1.37531e-16	
      9683.90000	     1.38917e-16	
      9685.80000	     1.42107e-16	
      9687.70000	     1.47967e-16	
      9689.60000	     1.45032e-16	
      9691.50000	     1.49800e-16	
      9693.40000	     1.50179e-16	
      9695.30000	     1.51062e-16	
      9697.20000	     1.44505e-16	
      9699.10000	     1.28847e-16	
      9701.00000	     1.31840e-16	
      9702.90000	     1.36083e-16	
      9704.80000	     1.45148e-16	
      9706.70000	     1.53876e-16	
      9708.60000	     1.45469e-16	
      9710.50000	     1.51725e-16	
      9712.40000	     1.39676e-16	
      9714.30000	     1.45469e-16	
      9716.20000	     1.43839e-16	
      9718.10000	     1.42617e-16	
      9720.00000	     1.36806e-16	
      9721.90000	     1.33834e-16	
      9723.80000	     1.43941e-16	
      9725.70000	     1.36151e-16	
      9727.60000	     1.42101e-16	
      9729.50000	     1.44346e-16	
      9731.40000	     1.44392e-16	
      9733.30000	     1.51221e-16	
      9735.20000	     1.51086e-16	
      9737.10000	     1.51190e-16	
      9739.00000	     1.38589e-16	
      9740.90000	     1.44342e-16	
      9742.80000	     1.42611e-16	
      9744.70000	     1.44218e-16	
      9746.60000	     1.47692e-16	
      9748.50000	     1.52448e-16	
      9750.40000	     1.50383e-16	
      9752.30000	     1.47307e-16	
      9754.20000	     1.48547e-16	
      9756.10000	     1.54214e-16	
      9758.00000	     1.55537e-16	
      9759.90000	     1.55245e-16	
      9761.80000	     1.55865e-16	
      9763.70000	     1.57368e-16	
      9765.60000	     1.50942e-16	
      9767.50000	     1.58174e-16	
      9769.40000	     1.58367e-16	
      9771.30000	     1.53906e-16	
      9773.20000	     1.50916e-16	
      9775.10000	     1.54443e-16	
      9777.00000	     1.54281e-16	
      9778.90000	     1.51857e-16	
      9780.80000	     1.46929e-16	
      9782.70000	     1.47177e-16	
      9784.60000	     1.40653e-16	
      9786.50000	     1.37788e-16	
      9788.40000	     1.28660e-16	
      9790.30000	     1.22949e-16	
      9792.20000	     1.29165e-16	
      9794.10000	     1.40037e-16	
      9796.00000	     1.46593e-16	
      9797.90000	     1.46722e-16	
      9799.80000	     1.44660e-16	
      9801.70000	     1.51437e-16	
      9803.60000	     1.68146e-16	
      9805.50000	     1.56851e-16	
      9807.40000	     1.59473e-16	
      9809.30000	     1.63836e-16	
      9811.20000	     1.45068e-16	
      9813.10000	     1.42590e-16	
      9815.00000	     1.67445e-16	
      9816.90000	     1.59396e-16	
      9818.80000	     1.47488e-16	
      9820.70000	     1.55387e-16	
      9822.60000	     1.56461e-16	
      9824.50000	     1.60268e-16	
      9826.40000	     1.62335e-16	
      9828.30000	     1.63281e-16	
      9830.20000	     1.58365e-16	
      9832.10000	     1.60629e-16	
      9834.00000	     1.64741e-16	
      9835.90000	     1.60001e-16	
      9837.80000	     1.62876e-16	
      9839.70000	     1.64837e-16	
      9841.60000	     1.62366e-16	
      9843.50000	     1.69930e-16	
      9845.40000	     1.59298e-16	
      9847.30000	     1.64975e-16	
      9849.20000	     1.55711e-16	
      9851.10000	     1.62360e-16	
      9853.00000	     1.65876e-16	
      9854.90000	     1.59123e-16	
      9856.80000	     1.61437e-16	
      9858.70000	     1.60845e-16	
      9860.60000	     1.65499e-16	
      9862.50000	     1.67151e-16	
      9864.40000	     1.61588e-16	
      9866.30000	     1.74917e-16	
      9868.20000	     1.82920e-16	
      9870.10000	     1.92160e-16	
      9872.00000	     1.74587e-16	
      9873.90000	     1.70731e-16	
      9875.80000	     1.80587e-16	
      9877.70000	     1.79013e-16	
      9879.60000	     1.88450e-16	
      9881.50000	     1.83485e-16	
      9883.40000	     1.73173e-16	
      9885.30000	     1.79205e-16	
      9887.20000	     1.68948e-16	
      9889.10000	     1.71252e-16	
      9891.00000	     1.66317e-16	
      9892.90000	     1.55223e-16	
      9894.80000	     1.50632e-16	
      9896.70000	     1.44743e-16	
      9898.60000	     1.25628e-16	
      9900.50000	     1.28046e-16	
      9902.40000	     1.21227e-16	
      9904.30000	     1.25202e-16	
      9906.20000	     1.32698e-16	
      9908.10000	     1.23832e-16	
      9910.00000	     9.79771e-17	
      9911.90000	     9.24033e-17	
      9913.80000	     6.37602e-17	
      9915.70000	     8.14597e-17	
      9917.60000	     1.05284e-16	
      9919.50000	     1.06466e-16	
      9921.40000	     1.12951e-16	
      9923.30000	     1.22905e-16	
      9925.20000	     1.19831e-16	
      9927.10000	     1.22561e-16	
      9929.00000	     1.22875e-16	
      9930.90000	     1.29670e-16	
      9932.80000	     1.26995e-16	
      9934.70000	     1.32122e-16	
      9936.60000	     1.28493e-16	
      9938.50000	     1.25278e-16	
      9940.40000	     1.36566e-16	
      9942.30000	     1.49123e-16	
      9944.20000	     1.38126e-16	
      9946.10000	     1.38589e-16	
      9948.00000	     1.46517e-16	
      9949.90000	     1.43898e-16	
      9951.80000	     1.55907e-16	
      9953.70000	     1.73342e-16	
      9955.60000	     1.87973e-16	
      9957.50000	     2.05700e-16	
      9959.40000	     2.02302e-16	
      9961.30000	     1.85923e-16	
      9963.20000	     1.77341e-16	
      9965.10000	     1.59689e-16	
      9967.00000	     1.50468e-16	
      9968.90000	     1.59788e-16	
      9970.80000	     1.55485e-16	
      9972.70000	     1.61162e-16	
      9974.60000	     1.80620e-16	
      9976.50000	     1.73843e-16	
      9978.40000	     1.64724e-16	
      9980.30000	     1.75476e-16	
      9982.20000	     1.70395e-16	
      9984.10000	     1.63393e-16	
      9986.00000	     1.56205e-16	
      9987.90000	     1.58963e-16	
      9989.80000	     1.64997e-16	
      9991.70000	     1.54908e-16	
      9993.60000	     1.66886e-16	
      9995.50000	     1.79589e-16	
      9997.40000	     1.72667e-16	
      9999.30000	     1.80936e-16	
     10001.20000	     1.73806e-16	
     10003.10000	     1.61668e-16	
     10005.00000	     1.76904e-16	
     10006.90000	     1.73990e-16	
     10008.80000	     2.09290e-16	
     10010.70000	     2.33643e-16	
     10012.60000	     2.70537e-16	
     10014.50000	     2.27883e-16	
     10016.40000	     1.80943e-16	
     10018.30000	     1.70487e-16	
     10020.20000	     1.93773e-16	
     10022.10000	     2.16599e-16	
     10024.00000	     2.09209e-16	
     10025.90000	     1.96050e-16	
     10027.80000	     1.95291e-16	
     10029.70000	     1.83393e-16	
     10031.60000	     1.75869e-16	
     10033.50000	     1.72126e-16	
     10035.40000	     1.76541e-16	
     10037.30000	     1.64883e-16	
     10039.20000	     1.67433e-16	
     10041.10000	     1.73147e-16	
     10043.00000	     1.68552e-16	
     10044.90000	     1.73808e-16	
     10046.80000	     1.61123e-16	
     10048.70000	     1.34711e-16	
     10050.60000	     1.25498e-16	
     10052.50000	     1.38906e-16	
     10054.40000	     1.59317e-16	
     10056.30000	     1.66081e-16	
     10058.20000	     1.72993e-16	
     10060.10000	     1.79293e-16	
     10062.00000	     1.97639e-16	
     10063.90000	     1.93897e-16	
     10065.80000	     1.75367e-16	
     10067.70000	     1.69026e-16	
     10069.60000	     1.81097e-16	
     10071.50000	     1.84707e-16	
     10073.40000	     1.83223e-16	
     10075.30000	     2.10398e-16	
     10077.20000	     2.32901e-16	
     10079.10000	     2.26568e-16	
     10081.00000	     2.14011e-16	
     10082.90000	     2.03559e-16	
     10084.80000	     2.01415e-16	
     10086.70000	     2.03698e-16	
     10088.60000	     1.86294e-16	
     10090.50000	     1.87394e-16	
     10092.40000	     1.95435e-16	
     10094.30000	     2.16272e-16	
     10096.20000	     2.21733e-16	
     10098.10000	     2.15668e-16	
#time:0.572228
