# Keck LRIS spectra of late-M, L and T dwarfs
# spty = L1  (Spectral type)
#
#     WAVELENGTH	#           FLUX	
#     (ANGSTROM)	#  (ERG/CM2/S/A)	
################	################	
      6300.00000	     2.22326e-17	
      6301.90000	     2.35969e-17	
      6303.80000	     2.77839e-17	
      6305.70000	     2.26007e-17	
      6307.60000	     2.13622e-17	
      6309.50000	     2.43242e-17	
      6311.40000	     2.49908e-17	
      6313.30000	     2.53633e-17	
      6315.20000	     2.52880e-17	
      6317.10000	     2.90202e-17	
      6319.00000	     2.85253e-17	
      6320.90000	     2.74819e-17	
      6322.80000	     2.80348e-17	
      6324.70000	     2.75374e-17	
      6326.60000	     2.89874e-17	
      6328.50000	     2.79926e-17	
      6330.40000	     2.87590e-17	
      6332.30000	     3.37221e-17	
      6334.20000	     3.24831e-17	
      6336.10000	     3.23015e-17	
      6338.00000	     3.72272e-17	
      6339.90000	     3.37450e-17	
      6341.80000	     3.26796e-17	
      6343.70000	     3.47393e-17	
      6345.60000	     3.30548e-17	
      6347.50000	     3.14606e-17	
      6349.40000	     3.73490e-17	
      6351.30000	     3.75812e-17	
      6353.20000	     3.81020e-17	
      6355.10000	     3.49160e-17	
      6357.00000	     3.52384e-17	
      6358.90000	     3.73771e-17	
      6360.80000	     3.58509e-17	
      6362.70000	     3.68159e-17	
      6364.60000	     3.38149e-17	
      6366.50000	     3.52513e-17	
      6368.40000	     3.71514e-17	
      6370.30000	     3.38122e-17	
      6372.20000	     3.09213e-17	
      6374.10000	     3.14778e-17	
      6376.00000	     3.34888e-17	
      6377.90000	     3.05809e-17	
      6379.80000	     3.03525e-17	
      6381.70000	     3.29496e-17	
      6383.60000	     2.99233e-17	
      6385.50000	     3.09019e-17	
      6387.40000	     3.41032e-17	
      6389.30000	     3.01597e-17	
      6391.20000	     3.19543e-17	
      6393.10000	     3.38711e-17	
      6395.00000	     3.51542e-17	
      6396.90000	     3.21421e-17	
      6398.80000	     3.60903e-17	
      6400.70000	     3.63550e-17	
      6402.60000	     3.64509e-17	
      6404.50000	     2.96804e-17	
      6406.40000	     3.05983e-17	
      6408.30000	     3.22513e-17	
      6410.20000	     3.67468e-17	
      6412.10000	     3.45933e-17	
      6414.00000	     3.15300e-17	
      6415.90000	     3.34974e-17	
      6417.80000	     3.82655e-17	
      6419.70000	     3.37759e-17	
      6421.60000	     3.32616e-17	
      6423.50000	     3.69832e-17	
      6425.40000	     3.42725e-17	
      6427.30000	     3.38822e-17	
      6429.20000	     3.72751e-17	
      6431.10000	     3.46330e-17	
      6433.00000	     3.35258e-17	
      6434.90000	     3.37944e-17	
      6436.80000	     3.30344e-17	
      6438.70000	     3.61199e-17	
      6440.60000	     3.43378e-17	
      6442.50000	     3.45183e-17	
      6444.40000	     3.65483e-17	
      6446.30000	     3.58563e-17	
      6448.20000	     3.77181e-17	
      6450.10000	     3.68375e-17	
      6452.00000	     3.76862e-17	
      6453.90000	     4.10400e-17	
      6455.80000	     3.92349e-17	
      6457.70000	     3.27323e-17	
      6459.60000	     3.35261e-17	
      6461.50000	     3.61754e-17	
      6463.40000	     3.50614e-17	
      6465.30000	     3.42797e-17	
      6467.20000	     3.64255e-17	
      6469.10000	     4.08097e-17	
      6471.00000	     4.05505e-17	
      6472.90000	     4.08734e-17	
      6474.80000	     3.58151e-17	
      6476.70000	     3.56651e-17	
      6478.60000	     3.84758e-17	
      6480.50000	     3.97812e-17	
      6482.40000	     3.51012e-17	
      6484.30000	     4.28456e-17	
      6486.20000	     3.77950e-17	
      6488.10000	     3.70258e-17	
      6490.00000	     4.27851e-17	
      6491.90000	     4.08456e-17	
      6493.80000	     4.02788e-17	
      6495.70000	     4.41699e-17	
      6497.60000	     4.20884e-17	
      6499.50000	     4.26175e-17	
      6501.40000	     4.43205e-17	
      6503.30000	     4.59178e-17	
      6505.20000	     4.72059e-17	
      6507.10000	     4.69660e-17	
      6509.00000	     4.85283e-17	
      6510.90000	     5.05137e-17	
      6512.80000	     5.13148e-17	
      6514.70000	     5.31258e-17	
      6516.60000	     5.13034e-17	
      6518.50000	     5.34075e-17	
      6520.40000	     5.91683e-17	
      6522.30000	     5.91666e-17	
      6524.20000	     6.08227e-17	
      6526.10000	     5.82713e-17	
      6528.00000	     6.03235e-17	
      6529.90000	     6.03169e-17	
      6531.80000	     6.31398e-17	
      6533.70000	     6.60780e-17	
      6535.60000	     7.06684e-17	
      6537.50000	     7.28645e-17	
      6539.40000	     7.43067e-17	
      6541.30000	     7.25565e-17	
      6543.20000	     7.23874e-17	
      6545.10000	     7.10675e-17	
      6547.00000	     6.86858e-17	
      6548.90000	     7.05949e-17	
      6550.80000	     7.38953e-17	
      6552.70000	     7.74502e-17	
      6554.60000	     7.33371e-17	
      6556.50000	     7.06526e-17	
      6558.40000	     7.24089e-17	
      6560.30000	     7.50633e-17	
      6562.20000	     7.59127e-17	
      6564.10000	     7.43843e-17	
      6566.00000	     7.74842e-17	
      6567.90000	     7.39084e-17	
      6569.80000	     7.55359e-17	
      6571.70000	     7.41627e-17	
      6573.60000	     6.73609e-17	
      6575.50000	     6.28394e-17	
      6577.40000	     6.76697e-17	
      6579.30000	     6.56499e-17	
      6581.20000	     7.00551e-17	
      6583.10000	     6.68587e-17	
      6585.00000	     6.40958e-17	
      6586.90000	     6.41319e-17	
      6588.80000	     6.87410e-17	
      6590.70000	     7.16307e-17	
      6592.60000	     7.10972e-17	
      6594.50000	     7.76847e-17	
      6596.40000	     7.59162e-17	
      6598.30000	     7.16582e-17	
      6600.20000	     7.26535e-17	
      6602.10000	     7.48027e-17	
      6604.00000	     7.63582e-17	
      6605.90000	     7.23752e-17	
      6607.80000	     7.21464e-17	
      6609.70000	     7.56919e-17	
      6611.60000	     7.60869e-17	
      6613.50000	     7.67258e-17	
      6615.40000	     7.73078e-17	
      6617.30000	     7.90316e-17	
      6619.20000	     7.38588e-17	
      6621.10000	     7.31259e-17	
      6623.00000	     7.51848e-17	
      6624.90000	     8.00662e-17	
      6626.80000	     7.88219e-17	
      6628.70000	     7.66153e-17	
      6630.60000	     7.48726e-17	
      6632.50000	     8.01108e-17	
      6634.40000	     8.13396e-17	
      6636.30000	     7.91885e-17	
      6638.20000	     8.23984e-17	
      6640.10000	     7.55677e-17	
      6642.00000	     7.39565e-17	
      6643.90000	     7.67440e-17	
      6645.80000	     7.70887e-17	
      6647.70000	     7.50119e-17	
      6649.60000	     7.80965e-17	
      6651.50000	     8.03170e-17	
      6653.40000	     8.02586e-17	
      6655.30000	     7.58499e-17	
      6657.20000	     7.77544e-17	
      6659.10000	     8.01991e-17	
      6661.00000	     7.91820e-17	
      6662.90000	     8.02011e-17	
      6664.80000	     7.99414e-17	
      6666.70000	     8.11261e-17	
      6668.60000	     7.96630e-17	
      6670.50000	     8.49318e-17	
      6672.40000	     8.20256e-17	
      6674.30000	     7.94713e-17	
      6676.20000	     7.75326e-17	
      6678.10000	     7.85738e-17	
      6680.00000	     8.36777e-17	
      6681.90000	     8.19292e-17	
      6683.80000	     8.22387e-17	
      6685.70000	     8.29494e-17	
      6687.60000	     8.44561e-17	
      6689.50000	     8.50726e-17	
      6691.40000	     7.99954e-17	
      6693.30000	     8.22317e-17	
      6695.20000	     8.31737e-17	
      6697.10000	     8.22764e-17	
      6699.00000	     8.13815e-17	
      6700.90000	     8.22177e-17	
      6702.80000	     8.28508e-17	
      6704.70000	     8.29892e-17	
      6706.60000	     8.75882e-17	
      6708.50000	     8.65869e-17	
      6710.40000	     8.72758e-17	
      6712.30000	     9.14105e-17	
      6714.20000	     8.56078e-17	
      6716.10000	     8.39409e-17	
      6718.00000	     8.83678e-17	
      6719.90000	     8.69346e-17	
      6721.80000	     8.40307e-17	
      6723.70000	     8.26306e-17	
      6725.60000	     8.38602e-17	
      6727.50000	     9.00204e-17	
      6729.40000	     8.40124e-17	
      6731.30000	     8.37578e-17	
      6733.20000	     8.48092e-17	
      6735.10000	     8.82657e-17	
      6737.00000	     8.79005e-17	
      6738.90000	     8.91534e-17	
      6740.80000	     9.02249e-17	
      6742.70000	     8.96108e-17	
      6744.60000	     9.72673e-17	
      6746.50000	     9.20881e-17	
      6748.40000	     9.45019e-17	
      6750.30000	     9.12745e-17	
      6752.20000	     8.72134e-17	
      6754.10000	     9.24618e-17	
      6756.00000	     9.51213e-17	
      6757.90000	     9.48224e-17	
      6759.80000	     9.28338e-17	
      6761.70000	     9.53015e-17	
      6763.60000	     9.42878e-17	
      6765.50000	     9.72018e-17	
      6767.40000	     9.91031e-17	
      6769.30000	     9.75548e-17	
      6771.20000	     9.84316e-17	
      6773.10000	     9.73796e-17	
      6775.00000	     9.55114e-17	
      6776.90000	     9.73371e-17	
      6778.80000	     9.82170e-17	
      6780.70000	     9.15121e-17	
      6782.60000	     9.38305e-17	
      6784.50000	     9.41517e-17	
      6786.40000	     9.15374e-17	
      6788.30000	     9.17842e-17	
      6790.20000	     9.36103e-17	
      6792.10000	     8.98283e-17	
      6794.00000	     9.30043e-17	
      6795.90000	     9.44947e-17	
      6797.80000	     9.46874e-17	
      6799.70000	     8.95886e-17	
      6801.60000	     8.85715e-17	
      6803.50000	     8.83871e-17	
      6805.40000	     9.02186e-17	
      6807.30000	     9.19832e-17	
      6809.20000	     8.89023e-17	
      6811.10000	     8.81478e-17	
      6813.00000	     8.63053e-17	
      6814.90000	     8.77712e-17	
      6816.80000	     8.74999e-17	
      6818.70000	     8.76946e-17	
      6820.60000	     8.47231e-17	
      6822.50000	     8.77074e-17	
      6824.40000	     8.86601e-17	
      6826.30000	     8.77067e-17	
      6828.20000	     8.34513e-17	
      6830.10000	     8.19711e-17	
      6832.00000	     8.39208e-17	
      6833.90000	     8.73514e-17	
      6835.80000	     8.77804e-17	
      6837.70000	     8.34012e-17	
      6839.60000	     8.15377e-17	
      6841.50000	     7.95804e-17	
      6843.40000	     8.43936e-17	
      6845.30000	     7.99894e-17	
      6847.20000	     8.42273e-17	
      6849.10000	     7.73070e-17	
      6851.00000	     7.95181e-17	
      6852.90000	     7.99302e-17	
      6854.80000	     7.98888e-17	
      6856.70000	     8.02194e-17	
      6858.60000	     7.79543e-17	
      6860.50000	     7.91415e-17	
      6862.40000	     7.96667e-17	
      6864.30000	     8.14768e-17	
      6866.20000	     7.85082e-17	
      6868.10000	     7.09578e-17	
      6870.00000	     6.76075e-17	
      6871.90000	     5.92292e-17	
      6873.80000	     5.54028e-17	
      6875.70000	     5.87410e-17	
      6877.60000	     6.33102e-17	
      6879.50000	     6.74303e-17	
      6881.40000	     6.98905e-17	
      6883.30000	     7.25485e-17	
      6885.20000	     7.46422e-17	
      6887.10000	     7.21361e-17	
      6889.00000	     6.74309e-17	
      6890.90000	     6.91342e-17	
      6892.80000	     6.28840e-17	
      6894.70000	     6.21912e-17	
      6896.60000	     6.58332e-17	
      6898.50000	     6.50386e-17	
      6900.40000	     6.45568e-17	
      6902.30000	     6.22518e-17	
      6904.20000	     6.65567e-17	
      6906.10000	     6.87525e-17	
      6908.00000	     6.90696e-17	
      6909.90000	     7.23413e-17	
      6911.80000	     7.32148e-17	
      6913.70000	     7.53052e-17	
      6915.60000	     7.12461e-17	
      6917.50000	     7.14631e-17	
      6919.40000	     7.08837e-17	
      6921.30000	     7.22969e-17	
      6923.20000	     7.63995e-17	
      6925.10000	     7.80018e-17	
      6927.00000	     8.17983e-17	
      6928.90000	     8.42522e-17	
      6930.80000	     8.75111e-17	
      6932.70000	     8.99584e-17	
      6934.60000	     9.12330e-17	
      6936.50000	     9.02593e-17	
      6938.40000	     8.88400e-17	
      6940.30000	     8.64429e-17	
      6942.20000	     9.08566e-17	
      6944.10000	     9.59336e-17	
      6946.00000	     1.02047e-16	
      6947.90000	     1.02805e-16	
      6949.80000	     1.04991e-16	
      6951.70000	     1.05177e-16	
      6953.60000	     1.00237e-16	
      6955.50000	     9.73462e-17	
      6957.40000	     9.73934e-17	
      6959.30000	     9.39554e-17	
      6961.20000	     9.91630e-17	
      6963.10000	     9.87782e-17	
      6965.00000	     1.06020e-16	
      6966.90000	     1.06852e-16	
      6968.80000	     1.02396e-16	
      6970.70000	     9.88914e-17	
      6972.60000	     9.88264e-17	
      6974.50000	     9.71624e-17	
      6976.40000	     9.56288e-17	
      6978.30000	     1.06659e-16	
      6980.20000	     1.09182e-16	
      6982.10000	     1.02503e-16	
      6984.00000	     1.01739e-16	
      6985.90000	     9.98722e-17	
      6987.80000	     1.05578e-16	
      6989.70000	     1.06374e-16	
      6991.60000	     1.09620e-16	
      6993.50000	     1.07859e-16	
      6995.40000	     1.04007e-16	
      6997.30000	     1.02937e-16	
      6999.20000	     1.08671e-16	
      7001.10000	     1.10418e-16	
      7003.00000	     1.10854e-16	
      7004.90000	     1.09353e-16	
      7006.80000	     1.13421e-16	
      7008.70000	     1.15570e-16	
      7010.60000	     1.16453e-16	
      7012.50000	     1.17946e-16	
      7014.40000	     1.18705e-16	
      7016.30000	     1.18735e-16	
      7018.20000	     1.24213e-16	
      7020.10000	     1.25324e-16	
      7022.00000	     1.23379e-16	
      7023.90000	     1.27790e-16	
      7025.80000	     1.33552e-16	
      7027.70000	     1.34565e-16	
      7029.60000	     1.40773e-16	
      7031.50000	     1.45944e-16	
      7033.40000	     1.44728e-16	
      7035.30000	     1.48653e-16	
      7037.20000	     1.50722e-16	
      7039.10000	     1.58862e-16	
      7041.00000	     1.69950e-16	
      7042.90000	     1.68378e-16	
      7044.80000	     1.69695e-16	
      7046.70000	     1.64127e-16	
      7048.60000	     1.64183e-16	
      7050.50000	     1.67577e-16	
      7052.40000	     1.66814e-16	
      7054.30000	     1.58376e-16	
      7056.20000	     1.49510e-16	
      7058.10000	     1.41337e-16	
      7060.00000	     1.35401e-16	
      7061.90000	     1.30410e-16	
      7063.80000	     1.30869e-16	
      7065.70000	     1.31280e-16	
      7067.60000	     1.32045e-16	
      7069.50000	     1.32713e-16	
      7071.40000	     1.35998e-16	
      7073.30000	     1.39264e-16	
      7075.20000	     1.41011e-16	
      7077.10000	     1.43037e-16	
      7079.00000	     1.44577e-16	
      7080.90000	     1.45358e-16	
      7082.80000	     1.43023e-16	
      7084.70000	     1.40825e-16	
      7086.60000	     1.41619e-16	
      7088.50000	     1.37662e-16	
      7090.40000	     1.33584e-16	
      7092.30000	     1.33451e-16	
      7094.20000	     1.31561e-16	
      7096.10000	     1.29858e-16	
      7098.00000	     1.33937e-16	
      7099.90000	     1.34570e-16	
      7101.80000	     1.35502e-16	
      7103.70000	     1.34822e-16	
      7105.60000	     1.36832e-16	
      7107.50000	     1.35628e-16	
      7109.40000	     1.37902e-16	
      7111.30000	     1.36662e-16	
      7113.20000	     1.42172e-16	
      7115.10000	     1.45237e-16	
      7117.00000	     1.39622e-16	
      7118.90000	     1.42120e-16	
      7120.80000	     1.40241e-16	
      7122.70000	     1.36627e-16	
      7124.60000	     1.44161e-16	
      7126.50000	     1.44755e-16	
      7128.40000	     1.42105e-16	
      7130.30000	     1.36998e-16	
      7132.20000	     1.33413e-16	
      7134.10000	     1.33891e-16	
      7136.00000	     1.36611e-16	
      7137.90000	     1.36628e-16	
      7139.80000	     1.37792e-16	
      7141.70000	     1.38269e-16	
      7143.60000	     1.38865e-16	
      7145.50000	     1.40258e-16	
      7147.40000	     1.42529e-16	
      7149.30000	     1.43452e-16	
      7151.20000	     1.44134e-16	
      7153.10000	     1.49247e-16	
      7155.00000	     1.48597e-16	
      7156.90000	     1.45415e-16	
      7158.80000	     1.45654e-16	
      7160.70000	     1.44931e-16	
      7162.60000	     1.45118e-16	
      7164.50000	     1.45970e-16	
      7166.40000	     1.48764e-16	
      7168.30000	     1.51941e-16	
      7170.20000	     1.53871e-16	
      7172.10000	     1.53102e-16	
      7174.00000	     1.54675e-16	
      7175.90000	     1.51713e-16	
      7177.80000	     1.52382e-16	
      7179.70000	     1.56293e-16	
      7181.60000	     1.56133e-16	
      7183.50000	     1.59128e-16	
      7185.40000	     1.61040e-16	
      7187.30000	     1.63314e-16	
      7189.20000	     1.60493e-16	
      7191.10000	     1.64102e-16	
      7193.00000	     1.63514e-16	
      7194.90000	     1.60096e-16	
      7196.80000	     1.61588e-16	
      7198.70000	     1.61824e-16	
      7200.60000	     1.61346e-16	
      7202.50000	     1.60629e-16	
      7204.40000	     1.62006e-16	
      7206.30000	     1.65111e-16	
      7208.20000	     1.61303e-16	
      7210.10000	     1.63508e-16	
      7212.00000	     1.69536e-16	
      7213.90000	     1.73040e-16	
      7215.80000	     1.80482e-16	
      7217.70000	     1.78793e-16	
      7219.60000	     1.75156e-16	
      7221.50000	     1.76093e-16	
      7223.40000	     1.73023e-16	
      7225.30000	     1.75426e-16	
      7227.20000	     1.79722e-16	
      7229.10000	     1.82953e-16	
      7231.00000	     1.81623e-16	
      7232.90000	     1.80532e-16	
      7234.80000	     1.83797e-16	
      7236.70000	     1.81745e-16	
      7238.60000	     1.83688e-16	
      7240.50000	     1.87454e-16	
      7242.40000	     1.90944e-16	
      7244.30000	     1.87865e-16	
      7246.20000	     1.83565e-16	
      7248.10000	     1.92864e-16	
      7250.00000	     1.96150e-16	
      7251.90000	     2.07284e-16	
      7253.80000	     2.10574e-16	
      7255.70000	     2.06637e-16	
      7257.60000	     2.08606e-16	
      7259.50000	     2.07298e-16	
      7261.40000	     2.11670e-16	
      7263.30000	     2.15213e-16	
      7265.20000	     2.18896e-16	
      7267.10000	     2.19987e-16	
      7269.00000	     2.21595e-16	
      7270.90000	     2.15676e-16	
      7272.80000	     2.16676e-16	
      7274.70000	     2.17326e-16	
      7276.60000	     2.12405e-16	
      7278.50000	     2.20131e-16	
      7280.40000	     2.20079e-16	
      7282.30000	     2.16627e-16	
      7284.20000	     2.22675e-16	
      7286.10000	     2.30534e-16	
      7288.00000	     2.30563e-16	
      7289.90000	     2.27453e-16	
      7291.80000	     2.25792e-16	
      7293.70000	     2.30907e-16	
      7295.60000	     2.34900e-16	
      7297.50000	     2.41493e-16	
      7299.40000	     2.44310e-16	
      7301.30000	     2.41645e-16	
      7303.20000	     2.42339e-16	
      7305.10000	     2.52017e-16	
      7307.00000	     2.57508e-16	
      7308.90000	     2.60726e-16	
      7310.80000	     2.65017e-16	
      7312.70000	     2.63864e-16	
      7314.60000	     2.65905e-16	
      7316.50000	     2.69813e-16	
      7318.40000	     2.81621e-16	
      7320.30000	     2.87752e-16	
      7322.20000	     2.87965e-16	
      7324.10000	     2.80326e-16	
      7326.00000	     2.80503e-16	
      7327.90000	     2.80580e-16	
      7329.80000	     2.71729e-16	
      7331.70000	     2.65083e-16	
      7333.60000	     2.62802e-16	
      7335.50000	     2.67907e-16	
      7337.40000	     2.78676e-16	
      7339.30000	     2.91976e-16	
      7341.20000	     2.98140e-16	
      7343.10000	     2.99805e-16	
      7345.00000	     2.93862e-16	
      7346.90000	     2.85966e-16	
      7348.80000	     2.73445e-16	
      7350.70000	     2.77030e-16	
      7352.60000	     2.82977e-16	
      7354.50000	     2.87083e-16	
      7356.40000	     2.74288e-16	
      7358.30000	     2.67995e-16	
      7360.20000	     2.65658e-16	
      7362.10000	     2.73600e-16	
      7364.00000	     2.80466e-16	
      7365.90000	     2.86729e-16	
      7367.80000	     2.96117e-16	
      7369.70000	     3.05460e-16	
      7371.60000	     3.04477e-16	
      7373.50000	     2.99416e-16	
      7375.40000	     2.94565e-16	
      7377.30000	     2.88282e-16	
      7379.20000	     2.78521e-16	
      7381.10000	     2.76396e-16	
      7383.00000	     2.75169e-16	
      7384.90000	     2.79869e-16	
      7386.80000	     2.84416e-16	
      7388.70000	     2.85681e-16	
      7390.60000	     2.91924e-16	
      7392.50000	     2.97907e-16	
      7394.40000	     2.92220e-16	
      7396.30000	     2.73792e-16	
      7398.20000	     2.62445e-16	
      7400.10000	     2.67973e-16	
      7402.00000	     2.82864e-16	
      7403.90000	     2.81202e-16	
      7405.80000	     2.80729e-16	
      7407.70000	     2.75900e-16	
      7409.60000	     2.70453e-16	
      7411.50000	     2.70941e-16	
      7413.40000	     2.75042e-16	
      7415.30000	     2.82060e-16	
      7417.20000	     2.80298e-16	
      7419.10000	     2.73062e-16	
      7421.00000	     2.56423e-16	
      7422.90000	     2.53821e-16	
      7424.80000	     2.59249e-16	
      7426.70000	     2.66447e-16	
      7428.60000	     2.72362e-16	
      7430.50000	     2.74987e-16	
      7432.40000	     2.73964e-16	
      7434.30000	     2.73169e-16	
      7436.20000	     2.62301e-16	
      7438.10000	     2.54820e-16	
      7440.00000	     2.52691e-16	
      7441.90000	     2.65091e-16	
      7443.80000	     2.59389e-16	
      7445.70000	     2.56236e-16	
      7447.60000	     2.48086e-16	
      7449.50000	     2.40917e-16	
      7451.40000	     2.48784e-16	
      7453.30000	     2.50875e-16	
      7455.20000	     2.53675e-16	
      7457.10000	     2.52149e-16	
      7459.00000	     2.51896e-16	
      7460.90000	     2.51740e-16	
      7462.80000	     2.48508e-16	
      7464.70000	     2.57837e-16	
      7466.60000	     2.58597e-16	
      7468.50000	     2.59929e-16	
      7470.40000	     2.59241e-16	
      7472.30000	     2.62484e-16	
      7474.20000	     2.54716e-16	
      7476.10000	     2.54581e-16	
      7478.00000	     2.54060e-16	
      7479.90000	     2.54933e-16	
      7481.80000	     2.62054e-16	
      7483.70000	     2.63574e-16	
      7485.60000	     2.68885e-16	
      7487.50000	     2.70709e-16	
      7489.40000	     2.71360e-16	
      7491.30000	     2.70521e-16	
      7493.20000	     2.65031e-16	
      7495.10000	     2.64263e-16	
      7497.00000	     2.57101e-16	
      7498.90000	     2.55473e-16	
      7500.80000	     2.68141e-16	
      7502.70000	     2.72678e-16	
      7504.60000	     2.69420e-16	
      7506.50000	     2.60189e-16	
      7508.40000	     2.64622e-16	
      7510.30000	     2.69943e-16	
      7512.20000	     2.79098e-16	
      7514.10000	     2.80479e-16	
      7516.00000	     2.73906e-16	
      7517.90000	     2.69270e-16	
      7519.80000	     2.71580e-16	
      7521.70000	     2.66744e-16	
      7523.60000	     2.65018e-16	
      7525.50000	     2.61702e-16	
      7527.40000	     2.71913e-16	
      7529.30000	     2.70411e-16	
      7531.20000	     2.69731e-16	
      7533.10000	     2.73675e-16	
      7535.00000	     2.81139e-16	
      7536.90000	     2.79283e-16	
      7538.80000	     2.77578e-16	
      7540.70000	     2.84873e-16	
      7542.60000	     2.92075e-16	
      7544.50000	     2.95664e-16	
      7546.40000	     2.94354e-16	
      7548.30000	     2.80734e-16	
      7550.20000	     2.74950e-16	
      7552.10000	     2.74412e-16	
      7554.00000	     2.78093e-16	
      7555.90000	     2.79729e-16	
      7557.80000	     2.81849e-16	
      7559.70000	     2.82010e-16	
      7561.60000	     2.85401e-16	
      7563.50000	     2.86098e-16	
      7565.40000	     2.85578e-16	
      7567.30000	     2.83299e-16	
      7569.20000	     2.77294e-16	
      7571.10000	     2.71089e-16	
      7573.00000	     2.76602e-16	
      7574.90000	     2.80817e-16	
      7576.80000	     2.78193e-16	
      7578.70000	     2.75271e-16	
      7580.60000	     2.70305e-16	
      7582.50000	     2.70947e-16	
      7584.40000	     2.79758e-16	
      7586.30000	     2.87587e-16	
      7588.20000	     2.76020e-16	
      7590.10000	     2.53376e-16	
      7592.00000	     2.37045e-16	
      7593.90000	     2.25734e-16	
      7595.80000	     2.03562e-16	
      7597.70000	     1.72607e-16	
      7599.60000	     1.38828e-16	
      7601.50000	     1.07882e-16	
      7603.40000	     8.64087e-17	
      7605.30000	     7.27705e-17	
      7607.20000	     6.22635e-17	
      7609.10000	     5.47817e-17	
      7611.00000	     5.74260e-17	
      7612.90000	     6.34988e-17	
      7614.80000	     7.50854e-17	
      7616.70000	     9.10467e-17	
      7618.60000	     1.12303e-16	
      7620.50000	     1.42990e-16	
      7622.40000	     1.56831e-16	
      7624.30000	     1.56708e-16	
      7626.20000	     1.35850e-16	
      7628.10000	     1.14854e-16	
      7630.00000	     9.92841e-17	
      7631.90000	     9.29028e-17	
      7633.80000	     8.67397e-17	
      7635.70000	     8.35588e-17	
      7637.60000	     8.09327e-17	
      7639.50000	     8.04957e-17	
      7641.40000	     8.07593e-17	
      7643.30000	     7.74292e-17	
      7645.20000	     7.57119e-17	
      7647.10000	     7.24195e-17	
      7649.00000	     6.85817e-17	
      7650.90000	     6.43940e-17	
      7652.80000	     6.07106e-17	
      7654.70000	     5.95272e-17	
      7656.60000	     5.35422e-17	
      7658.50000	     4.33844e-17	
      7660.40000	     3.96735e-17	
      7662.30000	     3.50889e-17	
      7664.20000	     2.86888e-17	
      7666.10000	     2.39328e-17	
      7668.00000	     1.91881e-17	
      7669.90000	     2.29200e-17	
      7671.80000	     2.82556e-17	
      7673.70000	     3.61753e-17	
      7675.60000	     4.27417e-17	
      7677.50000	     5.04728e-17	
      7679.40000	     5.82285e-17	
      7681.30000	     6.60234e-17	
      7683.20000	     7.35520e-17	
      7685.10000	     8.03370e-17	
      7687.00000	     8.21491e-17	
      7688.90000	     8.02537e-17	
      7690.80000	     7.62697e-17	
      7692.70000	     7.31996e-17	
      7694.60000	     6.56277e-17	
      7696.50000	     5.11932e-17	
      7698.40000	     4.09101e-17	
      7700.30000	     3.82050e-17	
      7702.20000	     2.62944e-17	
      7704.10000	     3.01827e-17	
      7706.00000	     4.00522e-17	
      7707.90000	     5.48787e-17	
      7709.80000	     6.60525e-17	
      7711.70000	     7.94812e-17	
      7713.60000	     8.95858e-17	
      7715.50000	     9.95706e-17	
      7717.40000	     1.08373e-16	
      7719.30000	     1.26130e-16	
      7721.20000	     1.34147e-16	
      7723.10000	     1.40649e-16	
      7725.00000	     1.53565e-16	
      7726.90000	     1.53990e-16	
      7728.80000	     1.66187e-16	
      7730.70000	     1.73651e-16	
      7732.60000	     1.82510e-16	
      7734.50000	     1.87546e-16	
      7736.40000	     1.92056e-16	
      7738.30000	     1.95740e-16	
      7740.20000	     2.03919e-16	
      7742.10000	     2.14294e-16	
      7744.00000	     2.11321e-16	
      7745.90000	     2.16834e-16	
      7747.80000	     2.16456e-16	
      7749.70000	     2.12781e-16	
      7751.60000	     2.08953e-16	
      7753.50000	     2.12185e-16	
      7755.40000	     2.11406e-16	
      7757.30000	     2.21087e-16	
      7759.20000	     2.27473e-16	
      7761.10000	     2.29928e-16	
      7763.00000	     2.30118e-16	
      7764.90000	     2.33296e-16	
      7766.80000	     2.31777e-16	
      7768.70000	     2.34252e-16	
      7770.60000	     2.45568e-16	
      7772.50000	     2.56047e-16	
      7774.40000	     2.63550e-16	
      7776.30000	     2.69958e-16	
      7778.20000	     2.63702e-16	
      7780.10000	     2.50138e-16	
      7782.00000	     2.43846e-16	
      7783.90000	     2.51395e-16	
      7785.80000	     2.50649e-16	
      7787.70000	     2.48352e-16	
      7789.60000	     2.45075e-16	
      7791.50000	     2.47426e-16	
      7793.40000	     2.55557e-16	
      7795.30000	     2.62014e-16	
      7797.20000	     2.61117e-16	
      7799.10000	     2.36986e-16	
      7801.00000	     1.90914e-16	
      7802.90000	     1.64573e-16	
      7804.80000	     1.76045e-16	
      7806.70000	     2.19622e-16	
      7808.60000	     2.68706e-16	
      7810.50000	     2.90688e-16	
      7812.40000	     2.88394e-16	
      7814.30000	     2.81590e-16	
      7816.20000	     2.91499e-16	
      7818.10000	     2.98954e-16	
      7820.00000	     2.96110e-16	
      7821.90000	     2.87791e-16	
      7823.80000	     2.77350e-16	
      7825.70000	     2.69603e-16	
      7827.60000	     2.79867e-16	
      7829.50000	     2.82076e-16	
      7831.40000	     2.80545e-16	
      7833.30000	     2.82626e-16	
      7835.20000	     2.90860e-16	
      7837.10000	     3.02772e-16	
      7839.00000	     3.02248e-16	
      7840.90000	     3.04494e-16	
      7842.80000	     3.01538e-16	
      7844.70000	     3.01977e-16	
      7846.60000	     3.13315e-16	
      7848.50000	     3.19302e-16	
      7850.40000	     3.25144e-16	
      7852.30000	     3.21136e-16	
      7854.20000	     3.20802e-16	
      7856.10000	     3.10640e-16	
      7858.00000	     3.08885e-16	
      7859.90000	     3.14822e-16	
      7861.80000	     3.26037e-16	
      7863.70000	     3.27943e-16	
      7865.60000	     3.26727e-16	
      7867.50000	     3.26314e-16	
      7869.40000	     3.16287e-16	
      7871.30000	     3.13952e-16	
      7873.20000	     2.98664e-16	
      7875.10000	     2.87188e-16	
      7877.00000	     2.88651e-16	
      7878.90000	     3.04572e-16	
      7880.80000	     3.16768e-16	
      7882.70000	     3.24984e-16	
      7884.60000	     3.30513e-16	
      7886.50000	     3.35569e-16	
      7888.40000	     3.37254e-16	
      7890.30000	     3.35032e-16	
      7892.20000	     3.27137e-16	
      7894.10000	     3.32794e-16	
      7896.00000	     3.41821e-16	
      7897.90000	     3.43655e-16	
      7899.80000	     3.25010e-16	
      7901.70000	     3.08944e-16	
      7903.60000	     3.10763e-16	
      7905.50000	     3.25155e-16	
      7907.40000	     3.33073e-16	
      7909.30000	     3.29069e-16	
      7911.20000	     3.17361e-16	
      7913.10000	     3.05732e-16	
      7915.00000	     2.99674e-16	
      7916.90000	     3.04324e-16	
      7918.80000	     3.16126e-16	
      7920.70000	     3.13822e-16	
      7922.60000	     3.09902e-16	
      7924.50000	     3.17478e-16	
      7926.40000	     3.12950e-16	
      7928.30000	     3.08810e-16	
      7930.20000	     3.14421e-16	
      7932.10000	     3.24810e-16	
      7934.00000	     3.43288e-16	
      7935.90000	     3.46528e-16	
      7937.80000	     3.52664e-16	
      7939.70000	     3.44928e-16	
      7941.60000	     3.22944e-16	
      7943.50000	     3.11741e-16	
      7945.40000	     3.06735e-16	
      7947.30000	     2.79333e-16	
      7949.20000	     2.38299e-16	
      7951.10000	     2.22761e-16	
      7953.00000	     2.49850e-16	
      7954.90000	     2.94068e-16	
      7956.80000	     3.39759e-16	
      7958.70000	     3.53729e-16	
      7960.60000	     3.56061e-16	
      7962.50000	     3.39765e-16	
      7964.40000	     3.25925e-16	
      7966.30000	     3.25265e-16	
      7968.20000	     3.38687e-16	
      7970.10000	     3.55281e-16	
      7972.00000	     3.73437e-16	
      7973.90000	     3.78679e-16	
      7975.80000	     3.66891e-16	
      7977.70000	     3.54819e-16	
      7979.60000	     3.46886e-16	
      7981.50000	     3.41249e-16	
      7983.40000	     3.43888e-16	
      7985.30000	     3.46635e-16	
      7987.20000	     3.38586e-16	
      7989.10000	     3.29699e-16	
      7991.00000	     3.27899e-16	
      7992.90000	     3.39525e-16	
      7994.80000	     3.50223e-16	
      7996.70000	     3.48239e-16	
      7998.60000	     3.48501e-16	
      8000.50000	     3.56132e-16	
      8002.40000	     3.61328e-16	
      8004.30000	     3.63477e-16	
      8006.20000	     3.70092e-16	
      8008.10000	     3.72758e-16	
      8010.00000	     3.80778e-16	
      8011.90000	     3.82635e-16	
      8013.80000	     3.82989e-16	
      8015.70000	     3.89515e-16	
      8017.60000	     3.93577e-16	
      8019.50000	     3.97968e-16	
      8021.40000	     4.05976e-16	
      8023.30000	     4.14462e-16	
      8025.20000	     4.19676e-16	
      8027.10000	     4.26076e-16	
      8029.00000	     4.42669e-16	
      8030.90000	     4.58475e-16	
      8032.80000	     4.60300e-16	
      8034.70000	     4.58333e-16	
      8036.60000	     4.53747e-16	
      8038.50000	     4.53848e-16	
      8040.40000	     4.54197e-16	
      8042.30000	     4.50446e-16	
      8044.20000	     4.53118e-16	
      8046.10000	     4.69013e-16	
      8048.00000	     4.79853e-16	
      8049.90000	     4.77367e-16	
      8051.80000	     4.87163e-16	
      8053.70000	     5.09993e-16	
      8055.60000	     5.29900e-16	
      8057.50000	     5.33961e-16	
      8059.40000	     5.37952e-16	
      8061.30000	     5.38857e-16	
      8063.20000	     5.36700e-16	
      8065.10000	     5.37629e-16	
      8067.00000	     5.33521e-16	
      8068.90000	     5.42217e-16	
      8070.80000	     5.51727e-16	
      8072.70000	     5.58597e-16	
      8074.60000	     5.70868e-16	
      8076.50000	     5.83425e-16	
      8078.40000	     5.92220e-16	
      8080.30000	     6.00498e-16	
      8082.20000	     6.06825e-16	
      8084.10000	     6.15604e-16	
      8086.00000	     6.29063e-16	
      8087.90000	     6.40510e-16	
      8089.80000	     6.38069e-16	
      8091.70000	     6.24380e-16	
      8093.60000	     6.33594e-16	
      8095.50000	     6.38250e-16	
      8097.40000	     6.45759e-16	
      8099.30000	     6.34813e-16	
      8101.20000	     6.26581e-16	
      8103.10000	     6.26186e-16	
      8105.00000	     6.22662e-16	
      8106.90000	     6.25645e-16	
      8108.80000	     6.55218e-16	
      8110.70000	     6.84080e-16	
      8112.60000	     6.97918e-16	
      8114.50000	     7.05382e-16	
      8116.40000	     6.99167e-16	
      8118.30000	     6.91098e-16	
      8120.20000	     7.01904e-16	
      8122.10000	     7.19084e-16	
      8124.00000	     7.25625e-16	
      8125.90000	     7.22541e-16	
      8127.80000	     7.47491e-16	
      8129.70000	     7.64988e-16	
      8131.60000	     7.63904e-16	
      8133.50000	     7.60492e-16	
      8135.40000	     7.60227e-16	
      8137.30000	     7.64618e-16	
      8139.20000	     7.84690e-16	
      8141.10000	     7.92804e-16	
      8143.00000	     7.83842e-16	
      8144.90000	     7.55668e-16	
      8146.80000	     7.32163e-16	
      8148.70000	     7.24640e-16	
      8150.60000	     7.21239e-16	
      8152.50000	     7.34278e-16	
      8154.40000	     7.56924e-16	
      8156.30000	     7.64517e-16	
      8158.20000	     7.74196e-16	
      8160.10000	     7.65445e-16	
      8162.00000	     7.64548e-16	
      8163.90000	     7.74394e-16	
      8165.80000	     7.83396e-16	
      8167.70000	     7.95239e-16	
      8169.60000	     8.18347e-16	
      8171.50000	     8.36336e-16	
      8173.40000	     8.46912e-16	
      8175.30000	     8.42006e-16	
      8177.20000	     8.34138e-16	
      8179.10000	     8.06626e-16	
      8181.00000	     7.54979e-16	
      8182.90000	     6.70812e-16	
      8184.80000	     5.80908e-16	
      8186.70000	     5.65117e-16	
      8188.60000	     6.06398e-16	
      8190.50000	     6.70979e-16	
      8192.40000	     7.05700e-16	
      8194.30000	     6.58666e-16	
      8196.20000	     5.59320e-16	
      8198.10000	     4.96461e-16	
      8200.00000	     5.10444e-16	
      8201.90000	     5.77991e-16	
      8203.80000	     6.68333e-16	
      8205.70000	     7.21026e-16	
      8207.60000	     7.34491e-16	
      8209.50000	     7.37216e-16	
      8211.40000	     7.38536e-16	
      8213.30000	     7.47590e-16	
      8215.20000	     7.57731e-16	
      8217.10000	     7.55837e-16	
      8219.00000	     7.56520e-16	
      8220.90000	     7.66123e-16	
      8222.80000	     7.82674e-16	
      8224.70000	     8.01794e-16	
      8226.60000	     8.20586e-16	
      8228.50000	     8.21504e-16	
      8230.40000	     8.20138e-16	
      8232.30000	     8.28616e-16	
      8234.20000	     8.23344e-16	
      8236.10000	     8.20794e-16	
      8238.00000	     8.25522e-16	
      8239.90000	     8.43099e-16	
      8241.80000	     8.70958e-16	
      8243.70000	     8.84668e-16	
      8245.60000	     8.82178e-16	
      8247.50000	     8.81896e-16	
      8249.40000	     8.97004e-16	
      8251.30000	     9.07921e-16	
      8253.20000	     8.92408e-16	
      8255.10000	     8.60507e-16	
      8257.00000	     8.26598e-16	
      8258.90000	     8.12933e-16	
      8260.80000	     8.34946e-16	
      8262.70000	     8.63889e-16	
      8264.60000	     8.91830e-16	
      8266.50000	     8.94301e-16	
      8268.40000	     8.87534e-16	
      8270.30000	     8.73600e-16	
      8272.20000	     8.57227e-16	
      8274.10000	     8.44360e-16	
      8276.00000	     8.33331e-16	
      8277.90000	     8.35443e-16	
      8279.80000	     8.46143e-16	
      8281.70000	     8.42135e-16	
      8283.60000	     8.28572e-16	
      8285.50000	     8.13012e-16	
      8287.40000	     8.08374e-16	
      8289.30000	     8.12723e-16	
      8291.20000	     7.91115e-16	
      8293.10000	     7.75889e-16	
      8295.00000	     7.71639e-16	
      8296.90000	     7.79825e-16	
      8298.80000	     7.75359e-16	
      8300.70000	     7.73522e-16	
      8302.60000	     7.74255e-16	
      8304.50000	     7.59530e-16	
      8306.40000	     7.60192e-16	
      8308.30000	     7.60853e-16	
      8310.20000	     7.67809e-16	
      8312.10000	     7.81829e-16	
      8314.00000	     7.90900e-16	
      8315.90000	     7.94641e-16	
      8317.80000	     8.06637e-16	
      8319.70000	     8.09096e-16	
      8321.60000	     8.24317e-16	
      8323.50000	     8.40279e-16	
      8325.40000	     8.46306e-16	
      8327.30000	     8.33127e-16	
      8329.20000	     8.06705e-16	
      8331.10000	     8.11555e-16	
      8333.00000	     8.31176e-16	
      8334.90000	     8.35384e-16	
      8336.80000	     8.25604e-16	
      8338.70000	     8.22677e-16	
      8340.60000	     8.23659e-16	
      8342.50000	     8.37135e-16	
      8344.40000	     8.37409e-16	
      8346.30000	     8.25880e-16	
      8348.20000	     8.21794e-16	
      8350.10000	     8.09290e-16	
      8352.00000	     8.22679e-16	
      8353.90000	     8.36669e-16	
      8355.80000	     8.40149e-16	
      8357.70000	     8.38463e-16	
      8359.60000	     8.40134e-16	
      8361.50000	     8.54438e-16	
      8363.40000	     8.59189e-16	
      8365.30000	     8.59120e-16	
      8367.20000	     8.72725e-16	
      8369.10000	     8.80385e-16	
      8371.00000	     9.12426e-16	
      8372.90000	     9.29745e-16	
      8374.80000	     8.92013e-16	
      8376.70000	     8.59434e-16	
      8378.60000	     8.46094e-16	
      8380.50000	     8.63982e-16	
      8382.40000	     8.84328e-16	
      8384.30000	     8.83689e-16	
      8386.20000	     8.77172e-16	
      8388.10000	     8.43361e-16	
      8390.00000	     8.06232e-16	
      8391.90000	     7.92684e-16	
      8393.80000	     8.01458e-16	
      8395.70000	     8.14249e-16	
      8397.60000	     8.35235e-16	
      8399.50000	     8.56827e-16	
      8401.40000	     8.80221e-16	
      8403.30000	     8.92342e-16	
      8405.20000	     8.92227e-16	
      8407.10000	     8.99281e-16	
      8409.00000	     9.00218e-16	
      8410.90000	     9.05137e-16	
      8412.80000	     9.05373e-16	
      8414.70000	     9.11085e-16	
      8416.60000	     9.33505e-16	
      8418.50000	     9.49623e-16	
      8420.40000	     9.34445e-16	
      8422.30000	     9.05316e-16	
      8424.20000	     8.87639e-16	
      8426.10000	     8.83841e-16	
      8428.00000	     8.81795e-16	
      8429.90000	     8.89208e-16	
      8431.80000	     8.98345e-16	
      8433.70000	     8.71495e-16	
      8435.60000	     8.08872e-16	
      8437.50000	     7.45913e-16	
      8439.40000	     7.15072e-16	
      8441.30000	     7.30413e-16	
      8443.20000	     7.38262e-16	
      8445.10000	     7.14716e-16	
      8447.00000	     6.76285e-16	
      8448.90000	     6.55181e-16	
      8450.80000	     6.50384e-16	
      8452.70000	     6.47035e-16	
      8454.60000	     6.26583e-16	
      8456.50000	     5.99945e-16	
      8458.40000	     5.84712e-16	
      8460.30000	     5.85724e-16	
      8462.20000	     5.97283e-16	
      8464.10000	     6.03793e-16	
      8466.00000	     6.07197e-16	
      8467.90000	     6.06020e-16	
      8469.80000	     5.98822e-16	
      8471.70000	     6.02831e-16	
      8473.60000	     6.01114e-16	
      8475.50000	     6.10505e-16	
      8477.40000	     6.11900e-16	
      8479.30000	     6.20431e-16	
      8481.20000	     6.15012e-16	
      8483.10000	     6.04739e-16	
      8485.00000	     5.97859e-16	
      8486.90000	     6.02864e-16	
      8488.80000	     6.19824e-16	
      8490.70000	     6.38916e-16	
      8492.60000	     6.48475e-16	
      8494.50000	     6.53155e-16	
      8496.40000	     6.64539e-16	
      8498.30000	     6.66742e-16	
      8500.20000	     6.52712e-16	
      8502.10000	     6.45995e-16	
      8504.00000	     6.46509e-16	
      8505.90000	     6.46394e-16	
      8507.80000	     6.40620e-16	
      8509.70000	     6.34947e-16	
      8511.60000	     6.29029e-16	
      8513.50000	     6.43765e-16	
      8515.40000	     6.51203e-16	
      8517.30000	     6.43408e-16	
      8519.20000	     6.25734e-16	
      8521.10000	     5.79472e-16	
      8523.00000	     5.24571e-16	
      8524.90000	     5.15462e-16	
      8526.80000	     5.56021e-16	
      8528.70000	     6.15155e-16	
      8530.60000	     6.56411e-16	
      8532.50000	     6.72094e-16	
      8534.40000	     6.81504e-16	
      8536.30000	     6.92316e-16	
      8538.20000	     6.94428e-16	
      8540.10000	     6.93589e-16	
      8542.00000	     6.89178e-16	
      8543.90000	     6.88908e-16	
      8545.80000	     6.98507e-16	
      8547.70000	     7.09005e-16	
      8549.60000	     7.30656e-16	
      8551.50000	     7.45484e-16	
      8553.40000	     7.45355e-16	
      8555.30000	     7.49148e-16	
      8557.20000	     7.63690e-16	
      8559.10000	     7.68815e-16	
      8561.00000	     7.64374e-16	
      8562.90000	     7.41744e-16	
      8564.80000	     7.38764e-16	
      8566.70000	     7.47940e-16	
      8568.60000	     7.74355e-16	
      8570.50000	     7.88753e-16	
      8572.40000	     7.84417e-16	
      8574.30000	     7.69362e-16	
      8576.20000	     7.53831e-16	
      8578.10000	     7.47031e-16	
      8580.00000	     7.52761e-16	
      8581.90000	     7.64670e-16	
      8583.80000	     7.70720e-16	
      8585.70000	     7.78836e-16	
      8587.60000	     7.89460e-16	
      8589.50000	     7.92994e-16	
      8591.40000	     7.92779e-16	
      8593.30000	     7.84719e-16	
      8595.20000	     7.87625e-16	
      8597.10000	     7.84919e-16	
      8599.00000	     7.94057e-16	
      8600.90000	     7.90572e-16	
      8602.80000	     7.86509e-16	
      8604.70000	     7.90367e-16	
      8606.60000	     8.01764e-16	
      8608.50000	     8.11495e-16	
      8610.40000	     8.10501e-16	
      8612.30000	     7.75277e-16	
      8614.20000	     7.17009e-16	
      8616.10000	     6.59586e-16	
      8618.00000	     6.08699e-16	
      8619.90000	     5.77703e-16	
      8621.80000	     5.79889e-16	
      8623.70000	     5.98723e-16	
      8625.60000	     5.89395e-16	
      8627.50000	     5.76198e-16	
      8629.40000	     5.77725e-16	
      8631.30000	     5.59633e-16	
      8633.20000	     5.45656e-16	
      8635.10000	     5.41815e-16	
      8637.00000	     5.55209e-16	
      8638.90000	     5.78947e-16	
      8640.80000	     5.87998e-16	
      8642.70000	     5.99036e-16	
      8644.60000	     6.13126e-16	
      8646.50000	     6.10240e-16	
      8648.40000	     6.07323e-16	
      8650.30000	     6.16502e-16	
      8652.20000	     6.31247e-16	
      8654.10000	     6.55807e-16	
      8656.00000	     6.78665e-16	
      8657.90000	     6.94530e-16	
      8659.80000	     7.00697e-16	
      8661.70000	     7.03210e-16	
      8663.60000	     6.90125e-16	
      8665.50000	     6.83895e-16	
      8667.40000	     6.99768e-16	
      8669.30000	     7.13782e-16	
      8671.20000	     7.04737e-16	
      8673.10000	     6.86662e-16	
      8675.00000	     6.77656e-16	
      8676.90000	     6.78903e-16	
      8678.80000	     7.08244e-16	
      8680.70000	     7.40675e-16	
      8682.60000	     7.49749e-16	
      8684.50000	     7.24026e-16	
      8686.40000	     6.92405e-16	
      8688.30000	     6.92826e-16	
      8690.20000	     6.96574e-16	
      8692.10000	     6.73548e-16	
      8694.00000	     6.21405e-16	
      8695.90000	     5.54565e-16	
      8697.80000	     4.97465e-16	
      8699.70000	     4.76705e-16	
      8701.60000	     4.95097e-16	
      8703.50000	     5.17086e-16	
      8705.40000	     5.32350e-16	
      8707.30000	     5.56906e-16	
      8709.20000	     5.66648e-16	
      8711.10000	     5.52452e-16	
      8713.00000	     5.18519e-16	
      8714.90000	     4.96061e-16	
      8716.80000	     4.90523e-16	
      8718.70000	     4.86498e-16	
      8720.60000	     4.93232e-16	
      8722.50000	     5.06587e-16	
      8724.40000	     5.12816e-16	
      8726.30000	     5.23452e-16	
      8728.20000	     5.49052e-16	
      8730.10000	     5.93997e-16	
      8732.00000	     6.27253e-16	
      8733.90000	     6.26830e-16	
      8735.80000	     6.11385e-16	
      8737.70000	     5.89562e-16	
      8739.60000	     5.74738e-16	
      8741.50000	     5.76799e-16	
      8743.40000	     6.01464e-16	
      8745.30000	     6.39074e-16	
      8747.20000	     6.81985e-16	
      8749.10000	     6.86245e-16	
      8751.00000	     6.49979e-16	
      8752.90000	     6.23314e-16	
      8754.80000	     6.36677e-16	
      8756.70000	     6.54902e-16	
      8758.60000	     6.66940e-16	
      8760.50000	     6.92131e-16	
      8762.40000	     7.26476e-16	
      8764.30000	     7.29424e-16	
      8766.20000	     7.03476e-16	
      8768.10000	     6.61850e-16	
      8770.00000	     6.39673e-16	
      8771.90000	     6.77696e-16	
      8773.80000	     7.35551e-16	
      8775.70000	     8.17365e-16	
      8777.60000	     9.00173e-16	
      8779.50000	     9.12451e-16	
      8781.40000	     8.49633e-16	
      8783.30000	     7.74118e-16	
      8785.20000	     7.44008e-16	
      8787.10000	     7.59265e-16	
      8789.00000	     7.89580e-16	
      8790.90000	     7.90334e-16	
      8792.80000	     7.93038e-16	
      8794.70000	     8.00212e-16	
      8796.60000	     8.10622e-16	
      8798.50000	     8.39680e-16	
      8800.40000	     8.80635e-16	
      8802.30000	     8.60884e-16	
      8804.20000	     7.72815e-16	
      8806.10000	     7.05278e-16	
      8808.00000	     6.82204e-16	
      8809.90000	     6.90453e-16	
      8811.80000	     7.24643e-16	
      8813.70000	     7.73316e-16	
      8815.60000	     8.54605e-16	
      8817.50000	     9.38142e-16	
      8819.40000	     9.96143e-16	
      8821.30000	     1.02299e-15	
      8823.20000	     1.00375e-15	
      8825.10000	     9.26456e-16	
      8827.00000	     8.44700e-16	
      8828.90000	     8.08311e-16	
      8830.80000	     8.04598e-16	
      8832.70000	     8.29666e-16	
      8834.60000	     8.78767e-16	
      8836.50000	     9.19865e-16	
      8838.40000	     9.50793e-16	
      8840.30000	     9.69861e-16	
      8842.20000	     9.98343e-16	
      8844.10000	     1.02203e-15	
      8846.00000	     1.01050e-15	
      8847.90000	     9.47985e-16	
      8849.80000	     8.56700e-16	
      8851.70000	     7.85541e-16	
      8853.60000	     8.13721e-16	
      8855.50000	     9.48866e-16	
      8857.40000	     1.04868e-15	
      8859.30000	     1.05728e-15	
      8861.20000	     9.66352e-16	
      8863.10000	     8.71625e-16	
      8865.00000	     7.94914e-16	
      8866.90000	     7.81556e-16	
      8868.80000	     8.25493e-16	
      8870.70000	     8.40034e-16	
      8872.60000	     7.88803e-16	
      8874.50000	     7.10728e-16	
      8876.40000	     6.55220e-16	
      8878.30000	     6.55173e-16	
      8880.20000	     7.28991e-16	
      8882.10000	     8.24059e-16	
      8884.00000	     8.74056e-16	
      8885.90000	     8.42941e-16	
      8887.80000	     7.77311e-16	
      8889.70000	     7.42949e-16	
      8891.60000	     7.84007e-16	
      8893.50000	     8.45889e-16	
      8895.40000	     8.80841e-16	
      8897.30000	     8.55512e-16	
      8899.20000	     7.78273e-16	
      8901.10000	     7.25203e-16	
      8903.00000	     7.41054e-16	
      8904.90000	     8.28259e-16	
      8906.80000	     9.17974e-16	
      8908.70000	     9.52660e-16	
      8910.60000	     9.54280e-16	
      8912.50000	     8.96421e-16	
      8914.40000	     8.41760e-16	
      8916.30000	     8.34787e-16	
      8918.20000	     8.72630e-16	
      8920.10000	     9.07930e-16	
      8922.00000	     9.41633e-16	
      8923.90000	     9.66946e-16	
      8925.80000	     9.39355e-16	
      8927.70000	     8.98771e-16	
      8929.60000	     8.62584e-16	
      8931.50000	     8.49797e-16	
      8933.40000	     8.96030e-16	
      8935.30000	     9.83354e-16	
      8937.20000	     1.06919e-15	
      8939.10000	     1.08386e-15	
      8941.00000	     1.00877e-15	
      8942.90000	     9.14631e-16	
      8944.80000	     8.38854e-16	
      8946.70000	     7.55105e-16	
      8948.60000	     7.31440e-16	
      8950.50000	     7.86772e-16	
      8952.40000	     8.72106e-16	
      8954.30000	     9.03977e-16	
      8956.20000	     8.90356e-16	
      8958.10000	     8.85264e-16	
      8960.00000	     9.29621e-16	
      8961.90000	     9.83750e-16	
      8963.80000	     1.01241e-15	
      8965.70000	     1.00582e-15	
      8967.60000	     9.64822e-16	
      8969.50000	     8.92324e-16	
      8971.40000	     8.69970e-16	
      8973.30000	     9.02787e-16	
      8975.20000	     9.40854e-16	
      8977.10000	     9.64653e-16	
      8979.00000	     9.98380e-16	
      8980.90000	     1.06048e-15	
      8982.80000	     1.06304e-15	
      8984.70000	     1.01697e-15	
      8986.60000	     9.97407e-16	
      8988.50000	     1.04992e-15	
      8990.40000	     1.12051e-15	
      8992.30000	     1.12658e-15	
      8994.20000	     1.06878e-15	
      8996.10000	     1.00667e-15	
      8998.00000	     9.82824e-16	
      8999.90000	     9.94785e-16	
      9001.80000	     9.82893e-16	
      9003.70000	     9.57559e-16	
      9005.60000	     9.75695e-16	
      9007.50000	     1.06238e-15	
      9009.40000	     1.13111e-15	
      9011.30000	     1.16529e-15	
      9013.20000	     1.12631e-15	
      9015.10000	     1.09411e-15	
      9017.00000	     1.11131e-15	
      9018.90000	     1.11745e-15	
      9020.80000	     1.11905e-15	
      9022.70000	     1.08322e-15	
      9024.60000	     1.02330e-15	
      9026.50000	     9.66390e-16	
      9028.40000	     9.11789e-16	
      9030.30000	     8.72402e-16	
      9032.20000	     8.63945e-16	
      9034.10000	     9.13880e-16	
      9036.00000	     9.72415e-16	
      9037.90000	     1.03893e-15	
      9039.80000	     1.10872e-15	
      9041.70000	     1.19701e-15	
      9043.60000	     1.24159e-15	
      9045.50000	     1.19641e-15	
      9047.40000	     1.14397e-15	
      9049.30000	     1.13908e-15	
      9051.20000	     1.16367e-15	
      9053.10000	     1.21684e-15	
      9055.00000	     1.21587e-15	
      9056.90000	     1.16174e-15	
      9058.80000	     1.09226e-15	
      9060.70000	     1.04903e-15	
      9062.60000	     1.03042e-15	
      9064.50000	     1.01401e-15	
      9066.40000	     1.01751e-15	
      9068.30000	     1.01583e-15	
      9070.20000	     1.01127e-15	
      9072.10000	     1.00047e-15	
      9074.00000	     9.81614e-16	
      9075.90000	     1.00007e-15	
      9077.80000	     1.00251e-15	
      9079.70000	     1.01403e-15	
      9081.60000	     1.09094e-15	
      9083.50000	     1.17001e-15	
      9085.40000	     1.17015e-15	
      9087.30000	     1.15801e-15	
      9089.20000	     1.14782e-15	
      9091.10000	     1.12676e-15	
      9093.00000	     1.12313e-15	
      9094.90000	     1.14262e-15	
      9096.80000	     1.18374e-15	
      9098.70000	     1.21020e-15	
      9100.60000	     1.23028e-15	
      9102.50000	     1.24938e-15	
      9104.40000	     1.24053e-15	
      9106.30000	     1.23691e-15	
      9108.20000	     1.22085e-15	
      9110.10000	     1.19608e-15	
      9112.00000	     1.17190e-15	
      9113.90000	     1.19241e-15	
      9115.80000	     1.25302e-15	
      9117.70000	     1.31813e-15	
      9119.60000	     1.32918e-15	
      9121.50000	     1.31532e-15	
      9123.40000	     1.29159e-15	
      9125.30000	     1.29829e-15	
      9127.20000	     1.29694e-15	
      9129.10000	     1.29270e-15	
      9131.00000	     1.30947e-15	
      9132.90000	     1.31718e-15	
      9134.80000	     1.31566e-15	
      9136.70000	     1.32498e-15	
      9138.60000	     1.37631e-15	
      9140.50000	     1.37785e-15	
      9142.40000	     1.29663e-15	
      9144.30000	     1.20602e-15	
      9146.20000	     1.17516e-15	
      9148.10000	     1.23113e-15	
      9150.00000	     1.32781e-15	
      9151.90000	     1.37331e-15	
      9153.80000	     1.34209e-15	
      9155.70000	     1.28881e-15	
      9157.60000	     1.31343e-15	
      9159.50000	     1.39943e-15	
      9161.40000	     1.45723e-15	
      9163.30000	     1.47275e-15	
      9165.20000	     1.45018e-15	
      9167.10000	     1.40279e-15	
      9169.00000	     1.40299e-15	
      9170.90000	     1.44923e-15	
      9172.80000	     1.49406e-15	
      9174.70000	     1.49988e-15	
      9176.60000	     1.47778e-15	
      9178.50000	     1.41483e-15	
      9180.40000	     1.33716e-15	
      9182.30000	     1.31373e-15	
      9184.20000	     1.33535e-15	
      9186.10000	     1.38729e-15	
      9188.00000	     1.41142e-15	
      9189.90000	     1.39721e-15	
      9191.80000	     1.43452e-15	
      9193.70000	     1.54261e-15	
      9195.60000	     1.64220e-15	
      9197.50000	     1.62055e-15	
      9199.40000	     1.55857e-15	
      9201.30000	     1.55259e-15	
      9203.20000	     1.56723e-15	
      9205.10000	     1.59022e-15	
      9207.00000	     1.61380e-15	
      9208.90000	     1.61891e-15	
      9210.80000	     1.56332e-15	
      9212.70000	     1.45268e-15	
      9214.60000	     1.35251e-15	
      9216.50000	     1.33345e-15	
      9218.40000	     1.34987e-15	
      9220.30000	     1.38436e-15	
      9222.20000	     1.42888e-15	
      9224.10000	     1.43556e-15	
      9226.00000	     1.42039e-15	
      9227.90000	     1.40102e-15	
      9229.80000	     1.39688e-15	
      9231.70000	     1.41467e-15	
      9233.60000	     1.41569e-15	
      9235.50000	     1.37341e-15	
      9237.40000	     1.33261e-15	
      9239.30000	     1.32420e-15	
      9241.20000	     1.31089e-15	
      9243.10000	     1.29117e-15	
      9245.00000	     1.32057e-15	
      9246.90000	     1.41749e-15	
      9248.80000	     1.49112e-15	
      9250.70000	     1.46847e-15	
      9252.60000	     1.38199e-15	
      9254.50000	     1.30610e-15	
      9256.40000	     1.27261e-15	
      9258.30000	     1.29597e-15	
      9260.20000	     1.39385e-15	
      9262.10000	     1.48140e-15	
      9264.00000	     1.52020e-15	
      9265.90000	     1.48485e-15	
      9267.80000	     1.41711e-15	
      9269.70000	     1.41159e-15	
      9271.60000	     1.48518e-15	
      9273.50000	     1.53104e-15	
      9275.40000	     1.50436e-15	
      9277.30000	     1.46158e-15	
      9279.20000	     1.39681e-15	
      9281.10000	     1.31547e-15	
      9283.00000	     1.25312e-15	
      9284.90000	     1.22222e-15	
      9286.80000	     1.25464e-15	
      9288.70000	     1.32408e-15	
      9290.60000	     1.36458e-15	
      9292.50000	     1.34697e-15	
      9294.40000	     1.33898e-15	
      9296.30000	     1.33846e-15	
      9298.20000	     1.34270e-15	
      9300.10000	     1.34614e-15	
      9302.00000	     1.31925e-15	
      9303.90000	     1.26827e-15	
      9305.80000	     1.23028e-15	
      9307.70000	     1.20617e-15	
      9309.60000	     1.21135e-15	
      9311.50000	     1.23595e-15	
      9313.40000	     1.23842e-15	
      9315.30000	     1.21794e-15	
      9317.20000	     1.27195e-15	
      9319.10000	     1.34873e-15	
      9321.00000	     1.30593e-15	
      9322.90000	     1.19580e-15	
      9324.80000	     1.15278e-15	
      9326.70000	     1.19103e-15	
      9328.60000	     1.23751e-15	
      9330.50000	     1.18044e-15	
      9332.40000	     1.14190e-15	
      9334.30000	     1.17350e-15	
      9336.20000	     1.23506e-15	
      9338.10000	     1.22235e-15	
      9340.00000	     1.17165e-15	
      9341.90000	     1.14204e-15	
      9343.80000	     1.14633e-15	
      9345.70000	     1.17705e-15	
      9347.60000	     1.12923e-15	
      9349.50000	     1.03499e-15	
      9351.40000	     1.02639e-15	
      9353.30000	     1.11602e-15	
      9355.20000	     1.24045e-15	
      9357.10000	     1.29727e-15	
      9359.00000	     1.21189e-15	
      9360.90000	     1.14985e-15	
      9362.80000	     1.09589e-15	
      9364.70000	     1.11050e-15	
      9366.60000	     1.23605e-15	
      9368.50000	     1.34689e-15	
      9370.40000	     1.36011e-15	
      9372.30000	     1.30372e-15	
      9374.20000	     1.20790e-15	
      9376.10000	     1.10872e-15	
      9378.00000	     1.08777e-15	
      9379.90000	     1.19208e-15	
      9381.80000	     1.28117e-15	
      9383.70000	     1.27338e-15	
      9385.60000	     1.19829e-15	
      9387.50000	     1.17658e-15	
      9389.40000	     1.22203e-15	
      9391.30000	     1.26763e-15	
      9393.20000	     1.27833e-15	
      9395.10000	     1.32318e-15	
      9397.00000	     1.40327e-15	
      9398.90000	     1.42891e-15	
      9400.80000	     1.42446e-15	
      9402.70000	     1.38148e-15	
      9404.60000	     1.36773e-15	
      9406.50000	     1.35152e-15	
      9408.40000	     1.36670e-15	
      9410.30000	     1.41668e-15	
      9412.20000	     1.47777e-15	
      9414.10000	     1.52618e-15	
      9416.00000	     1.51731e-15	
      9417.90000	     1.46689e-15	
      9419.80000	     1.44280e-15	
      9421.70000	     1.43536e-15	
      9423.60000	     1.44339e-15	
      9425.50000	     1.45050e-15	
      9427.40000	     1.45704e-15	
      9429.30000	     1.47837e-15	
      9431.20000	     1.42457e-15	
      9433.10000	     1.30734e-15	
      9435.00000	     1.29066e-15	
      9436.90000	     1.38401e-15	
      9438.80000	     1.49518e-15	
      9440.70000	     1.53782e-15	
      9442.60000	     1.44858e-15	
      9444.50000	     1.30905e-15	
      9446.40000	     1.19901e-15	
      9448.30000	     1.18280e-15	
      9450.20000	     1.24931e-15	
      9452.10000	     1.38859e-15	
      9454.00000	     1.48666e-15	
      9455.90000	     1.52903e-15	
      9457.80000	     1.54003e-15	
      9459.70000	     1.47542e-15	
      9461.60000	     1.41696e-15	
      9463.50000	     1.39223e-15	
      9465.40000	     1.34487e-15	
      9467.30000	     1.39091e-15	
      9469.20000	     1.47786e-15	
      9471.10000	     1.54997e-15	
      9473.00000	     1.56075e-15	
      9474.90000	     1.55972e-15	
      9476.80000	     1.57443e-15	
      9478.70000	     1.58060e-15	
      9480.60000	     1.64305e-15	
      9482.50000	     1.69490e-15	
      9484.40000	     1.63720e-15	
      9486.30000	     1.54102e-15	
      9488.20000	     1.53294e-15	
      9490.10000	     1.59520e-15	
      9492.00000	     1.70942e-15	
      9493.90000	     1.79309e-15	
      9495.80000	     1.79945e-15	
      9497.70000	     1.68632e-15	
      9499.60000	     1.56792e-15	
      9501.50000	     1.53529e-15	
      9503.40000	     1.52740e-15	
      9505.30000	     1.48168e-15	
      9507.20000	     1.48030e-15	
      9509.10000	     1.57541e-15	
      9511.00000	     1.66256e-15	
      9512.90000	     1.73373e-15	
      9514.80000	     1.79131e-15	
      9516.70000	     1.76673e-15	
      9518.60000	     1.68872e-15	
      9520.50000	     1.60782e-15	
      9522.40000	     1.53495e-15	
      9524.30000	     1.49926e-15	
      9526.20000	     1.52206e-15	
      9528.10000	     1.57589e-15	
      9530.00000	     1.68745e-15	
      9531.90000	     1.74623e-15	
      9533.80000	     1.77123e-15	
      9535.70000	     1.81207e-15	
      9537.60000	     1.82043e-15	
      9539.50000	     1.78794e-15	
      9541.40000	     1.77261e-15	
      9543.30000	     1.80473e-15	
      9545.20000	     1.83125e-15	
      9547.10000	     1.78449e-15	
      9549.00000	     1.74446e-15	
      9550.90000	     1.73622e-15	
      9552.80000	     1.73361e-15	
      9554.70000	     1.75873e-15	
      9556.60000	     1.75617e-15	
      9558.50000	     1.71362e-15	
      9560.40000	     1.70237e-15	
      9562.30000	     1.76534e-15	
      9564.20000	     1.81421e-15	
      9566.10000	     1.78897e-15	
      9568.00000	     1.75244e-15	
      9569.90000	     1.75526e-15	
      9571.80000	     1.78830e-15	
      9573.70000	     1.82860e-15	
      9575.60000	     1.88421e-15	
      9577.50000	     1.88743e-15	
      9579.40000	     1.89070e-15	
      9581.30000	     1.89403e-15	
      9583.20000	     1.83302e-15	
      9585.10000	     1.80291e-15	
      9587.00000	     1.82925e-15	
      9588.90000	     1.77828e-15	
      9590.80000	     1.65208e-15	
      9592.70000	     1.56186e-15	
      9594.60000	     1.53042e-15	
      9596.50000	     1.52785e-15	
      9598.40000	     1.52749e-15	
      9600.30000	     1.49362e-15	
      9602.20000	     1.50510e-15	
      9604.10000	     1.57863e-15	
      9606.00000	     1.64408e-15	
      9607.90000	     1.65634e-15	
      9609.80000	     1.67658e-15	
      9611.70000	     1.69017e-15	
      9613.60000	     1.71133e-15	
      9615.50000	     1.69061e-15	
      9617.40000	     1.70841e-15	
      9619.30000	     1.78593e-15	
      9621.20000	     1.79369e-15	
      9623.10000	     1.74892e-15	
      9625.00000	     1.75719e-15	
      9626.90000	     1.75891e-15	
      9628.80000	     1.77744e-15	
      9630.70000	     1.78856e-15	
      9632.60000	     1.77284e-15	
      9634.50000	     1.76743e-15	
      9636.40000	     1.69730e-15	
      9638.30000	     1.54814e-15	
      9640.20000	     1.48203e-15	
      9642.10000	     1.55417e-15	
      9644.00000	     1.63554e-15	
      9645.90000	     1.68684e-15	
      9647.80000	     1.72105e-15	
      9649.70000	     1.72589e-15	
      9651.60000	     1.72136e-15	
      9653.50000	     1.76827e-15	
      9655.40000	     1.79832e-15	
      9657.30000	     1.83262e-15	
      9659.20000	     1.88377e-15	
      9661.10000	     1.92630e-15	
      9663.00000	     1.91523e-15	
      9664.90000	     1.89724e-15	
      9666.80000	     1.91780e-15	
      9668.70000	     1.92807e-15	
      9670.60000	     1.91613e-15	
      9672.50000	     1.90790e-15	
      9674.40000	     1.86614e-15	
      9676.30000	     1.86803e-15	
      9678.20000	     1.92363e-15	
      9680.10000	     1.92861e-15	
      9682.00000	     1.89175e-15	
      9683.90000	     1.87745e-15	
      9685.80000	     1.85246e-15	
      9687.70000	     1.83162e-15	
      9689.60000	     1.89445e-15	
      9691.50000	     1.95916e-15	
      9693.40000	     2.01613e-15	
      9695.30000	     2.08682e-15	
      9697.20000	     2.07800e-15	
      9699.10000	     2.10201e-15	
      9701.00000	     2.03962e-15	
      9702.90000	     1.94667e-15	
      9704.80000	     1.91066e-15	
      9706.70000	     1.95402e-15	
      9708.60000	     2.02339e-15	
      9710.50000	     2.11060e-15	
      9712.40000	     2.19861e-15	
      9714.30000	     2.23944e-15	
      9716.20000	     2.23419e-15	
      9718.10000	     2.23968e-15	
      9720.00000	     2.23030e-15	
      9721.90000	     2.20629e-15	
      9723.80000	     2.19697e-15	
      9725.70000	     2.11472e-15	
      9727.60000	     2.08598e-15	
      9729.50000	     2.14139e-15	
      9731.40000	     2.17218e-15	
      9733.30000	     2.15673e-15	
      9735.20000	     2.15888e-15	
      9737.10000	     2.15110e-15	
      9739.00000	     2.10616e-15	
      9740.90000	     2.03599e-15	
      9742.80000	     2.02779e-15	
      9744.70000	     2.05475e-15	
      9746.60000	     2.07051e-15	
      9748.50000	     2.10954e-15	
      9750.40000	     2.14301e-15	
      9752.30000	     2.17569e-15	
      9754.20000	     2.19779e-15	
      9756.10000	     2.20023e-15	
      9758.00000	     2.18098e-15	
      9759.90000	     2.20518e-15	
      9761.80000	     2.25710e-15	
      9763.70000	     2.26198e-15	
      9765.60000	     2.24248e-15	
      9767.50000	     2.20548e-15	
      9769.40000	     2.18709e-15	
      9771.30000	     2.20168e-15	
      9773.20000	     2.25854e-15	
      9775.10000	     2.23686e-15	
      9777.00000	     2.14979e-15	
      9778.90000	     2.08103e-15	
      9780.80000	     2.07591e-15	
      9782.70000	     2.03471e-15	
      9784.60000	     2.07682e-15	
      9786.50000	     2.15600e-15	
      9788.40000	     2.19588e-15	
      9790.30000	     2.23470e-15	
      9792.20000	     2.30751e-15	
      9794.10000	     2.31886e-15	
      9796.00000	     2.33524e-15	
      9797.90000	     2.31699e-15	
      9799.80000	     2.27250e-15	
      9801.70000	     2.31287e-15	
      9803.60000	     2.36679e-15	
      9805.50000	     2.40641e-15	
      9807.40000	     2.36366e-15	
      9809.30000	     2.29884e-15	
      9811.20000	     2.29030e-15	
      9813.10000	     2.31210e-15	
      9815.00000	     2.27455e-15	
      9816.90000	     2.26611e-15	
      9818.80000	     2.29208e-15	
      9820.70000	     2.28901e-15	
      9822.60000	     2.33039e-15	
      9824.50000	     2.33333e-15	
      9826.40000	     2.34842e-15	
      9828.30000	     2.31287e-15	
      9830.20000	     2.30646e-15	
      9832.10000	     2.33024e-15	
      9834.00000	     2.38421e-15	
      9835.90000	     2.39042e-15	
      9837.80000	     2.40843e-15	
      9839.70000	     2.43909e-15	
      9841.60000	     2.39982e-15	
      9843.50000	     2.33333e-15	
      9845.40000	     2.35849e-15	
      9847.30000	     2.40819e-15	
      9849.20000	     2.42766e-15	
      9851.10000	     2.43333e-15	
      9853.00000	     2.45800e-15	
      9854.90000	     2.48497e-15	
      9856.80000	     2.54795e-15	
      9858.70000	     2.49235e-15	
      9860.60000	     2.38358e-15	
      9862.50000	     2.44884e-15	
      9864.40000	     2.61553e-15	
      9866.30000	     2.71801e-15	
      9868.20000	     2.68120e-15	
      9870.10000	     2.56495e-15	
      9872.00000	     2.55869e-15	
      9873.90000	     2.64902e-15	
      9875.80000	     2.71299e-15	
      9877.70000	     2.73484e-15	
      9879.60000	     2.71585e-15	
      9881.50000	     2.64343e-15	
      9883.40000	     2.51119e-15	
      9885.30000	     2.27462e-15	
      9887.20000	     1.97986e-15	
      9889.10000	     1.79924e-15	
      9891.00000	     1.65729e-15	
      9892.90000	     1.47686e-15	
      9894.80000	     1.31683e-15	
      9896.70000	     1.19068e-15	
      9898.60000	     1.12789e-15	
      9900.50000	     1.10978e-15	
      9902.40000	     1.05739e-15	
      9904.30000	     9.82016e-16	
      9906.20000	     9.58389e-16	
      9908.10000	     1.02460e-15	
      9910.00000	     1.06368e-15	
      9911.90000	     1.03316e-15	
      9913.80000	     1.02664e-15	
      9915.70000	     1.09921e-15	
      9917.60000	     1.20591e-15	
      9919.50000	     1.27306e-15	
      9921.40000	     1.26853e-15	
      9923.30000	     1.31864e-15	
      9925.20000	     1.45236e-15	
      9927.10000	     1.56670e-15	
      9929.00000	     1.61809e-15	
      9930.90000	     1.58132e-15	
      9932.80000	     1.61079e-15	
      9934.70000	     1.72555e-15	
      9936.60000	     1.77738e-15	
      9938.50000	     1.90203e-15	
      9940.40000	     1.96392e-15	
      9942.30000	     1.91071e-15	
      9944.20000	     1.84978e-15	
      9946.10000	     1.79669e-15	
      9948.00000	     1.83818e-15	
      9949.90000	     2.02411e-15	
      9951.80000	     2.12654e-15	
      9953.70000	     2.01444e-15	
      9955.60000	     1.77634e-15	
      9957.50000	     1.56629e-15	
      9959.40000	     1.47488e-15	
      9961.30000	     1.52076e-15	
      9963.20000	     1.60724e-15	
      9965.10000	     1.67239e-15	
      9967.00000	     1.65920e-15	
      9968.90000	     1.59168e-15	
      9970.80000	     1.59783e-15	
      9972.70000	     1.60632e-15	
      9974.60000	     1.56299e-15	
      9976.50000	     1.57942e-15	
      9978.40000	     1.61591e-15	
      9980.30000	     1.61175e-15	
      9982.20000	     1.67360e-15	
      9984.10000	     1.78548e-15	
      9986.00000	     1.96299e-15	
      9987.90000	     2.07303e-15	
      9989.80000	     2.06803e-15	
      9991.70000	     1.96399e-15	
      9993.60000	     1.86017e-15	
      9995.50000	     1.89253e-15	
      9997.40000	     2.03944e-15	
      9999.30000	     2.14291e-15	
     10001.20000	     2.15610e-15	
     10003.10000	     2.06946e-15	
     10005.00000	     2.12503e-15	
     10006.90000	     2.22663e-15	
     10008.80000	     2.24366e-15	
     10010.70000	     2.20834e-15	
     10012.60000	     2.18033e-15	
     10014.50000	     2.05607e-15	
     10016.40000	     1.89989e-15	
     10018.30000	     1.85142e-15	
     10020.20000	     1.92044e-15	
     10022.10000	     2.10750e-15	
     10024.00000	     2.28882e-15	
     10025.90000	     2.37427e-15	
     10027.80000	     2.33329e-15	
     10029.70000	     2.13339e-15	
     10031.60000	     1.92356e-15	
     10033.50000	     1.72771e-15	
     10035.40000	     1.64860e-15	
     10037.30000	     1.69964e-15	
     10039.20000	     1.82732e-15	
     10041.10000	     1.84748e-15	
     10043.00000	     1.84929e-15	
     10044.90000	     1.96012e-15	
     10046.80000	     2.11678e-15	
     10048.70000	     2.16487e-15	
     10050.60000	     2.15114e-15	
     10052.50000	     2.23100e-15	
     10054.40000	     2.38246e-15	
     10056.30000	     2.51736e-15	
     10058.20000	     2.58888e-15	
     10060.10000	     2.69604e-15	
     10062.00000	     2.77279e-15	
     10063.90000	     2.81950e-15	
     10065.80000	     2.66410e-15	
     10067.70000	     2.48063e-15	
     10069.60000	     2.37596e-15	
     10071.50000	     2.41988e-15	
     10073.40000	     2.63091e-15	
     10075.30000	     2.82638e-15	
     10077.20000	     3.00852e-15	
     10079.10000	     3.03681e-15	
     10081.00000	     2.93918e-15	
     10082.90000	     2.84213e-15	
     10084.80000	     2.71087e-15	
     10086.70000	     2.59094e-15	
     10088.60000	     2.55805e-15	
     10090.50000	     6.67719e-16	
     10092.40000	     0.00000e+00	
     10094.30000	     0.00000e+00	
     10096.20000	     0.00000e+00	
     10098.10000	     0.00000e+00	
#time:0.135113
